sqrt(x^a)/a, 2.0, -24, 24, 0.01, 
-24.0, 12.00005
-23.99, 11.995049999999999
-23.979999999999997, 11.990049999999998
-23.969999999999995, 11.985049999999998
-23.959999999999994, 11.980049999999997
-23.949999999999992, 11.975049999999996
-23.93999999999999, 11.970049999999995
-23.92999999999999, 11.965049999999994
-23.919999999999987, 11.960049999999994
-23.909999999999986, 11.955049999999993
-23.899999999999984, 11.950049999999992
-23.889999999999983, 11.945049999999991
-23.87999999999998, 11.94004999999999
-23.86999999999998, 11.93504999999999
-23.859999999999978, 11.930049999999989
-23.849999999999977, 11.925049999999988
-23.839999999999975, 11.920049999999987
-23.829999999999973, 11.915049999999987
-23.819999999999972, 11.910049999999986
-23.80999999999997, 11.905049999999985
-23.79999999999997, 11.900049999999984
-23.789999999999967, 11.895049999999983
-23.779999999999966, 11.890049999999983
-23.769999999999964, 11.885049999999982
-23.759999999999962, 11.880049999999981
-23.74999999999996, 11.87504999999998
-23.73999999999996, 11.87004999999998
-23.729999999999958, 11.865049999999979
-23.719999999999956, 11.860049999999978
-23.709999999999955, 11.855049999999977
-23.699999999999953, 11.850049999999976
-23.68999999999995, 11.845049999999976
-23.67999999999995, 11.840049999999975
-23.66999999999995, 11.835049999999974
-23.659999999999947, 11.830049999999973
-23.649999999999945, 11.825049999999973
-23.639999999999944, 11.820049999999972
-23.629999999999942, 11.815049999999971
-23.61999999999994, 11.81004999999997
-23.60999999999994, 11.80504999999997
-23.599999999999937, 11.800049999999969
-23.589999999999936, 11.795049999999968
-23.579999999999934, 11.790049999999967
-23.569999999999933, 11.785049999999966
-23.55999999999993, 11.780049999999965
-23.54999999999993, 11.775049999999965
-23.539999999999928, 11.770049999999964
-23.529999999999927, 11.765049999999963
-23.519999999999925, 11.760049999999962
-23.509999999999923, 11.755049999999962
-23.499999999999922, 11.75004999999996
-23.48999999999992, 11.74504999999996
-23.47999999999992, 11.74004999999996
-23.469999999999917, 11.735049999999958
-23.459999999999916, 11.730049999999958
-23.449999999999914, 11.725049999999957
-23.439999999999912, 11.720049999999956
-23.42999999999991, 11.715049999999955
-23.41999999999991, 11.710049999999955
-23.409999999999908, 11.705049999999954
-23.399999999999906, 11.700049999999953
-23.389999999999905, 11.695049999999952
-23.379999999999903, 11.690049999999951
-23.3699999999999, 11.68504999999995
-23.3599999999999, 11.68004999999995
-23.3499999999999, 11.675049999999949
-23.339999999999897, 11.670049999999948
-23.329999999999895, 11.665049999999948
-23.319999999999894, 11.660049999999947
-23.309999999999892, 11.655049999999946
-23.29999999999989, 11.650049999999945
-23.28999999999989, 11.645049999999944
-23.279999999999887, 11.640049999999944
-23.269999999999886, 11.635049999999943
-23.259999999999884, 11.630049999999942
-23.249999999999883, 11.625049999999941
-23.23999999999988, 11.62004999999994
-23.22999999999988, 11.61504999999994
-23.219999999999878, 11.610049999999939
-23.209999999999877, 11.605049999999938
-23.199999999999875, 11.600049999999937
-23.189999999999873, 11.595049999999937
-23.179999999999872, 11.590049999999936
-23.16999999999987, 11.585049999999935
-23.15999999999987, 11.580049999999934
-23.149999999999867, 11.575049999999933
-23.139999999999866, 11.570049999999933
-23.129999999999864, 11.565049999999932
-23.119999999999862, 11.560049999999931
-23.10999999999986, 11.55504999999993
-23.09999999999986, 11.55004999999993
-23.089999999999858, 11.545049999999929
-23.079999999999856, 11.540049999999928
-23.069999999999855, 11.535049999999927
-23.059999999999853, 11.530049999999926
-23.04999999999985, 11.525049999999926
-23.03999999999985, 11.520049999999925
-23.02999999999985, 11.515049999999924
-23.019999999999847, 11.510049999999923
-23.009999999999845, 11.505049999999923
-22.999999999999844, 11.500049999999922
-22.989999999999842, 11.495049999999921
-22.97999999999984, 11.49004999999992
-22.96999999999984, 11.48504999999992
-22.959999999999837, 11.480049999999919
-22.949999999999836, 11.475049999999918
-22.939999999999834, 11.470049999999917
-22.929999999999833, 11.465049999999916
-22.91999999999983, 11.460049999999915
-22.90999999999983, 11.455049999999915
-22.899999999999828, 11.450049999999914
-22.889999999999826, 11.445049999999913
-22.879999999999825, 11.440049999999912
-22.869999999999823, 11.435049999999912
-22.859999999999822, 11.43004999999991
-22.84999999999982, 11.42504999999991
-22.83999999999982, 11.42004999999991
-22.829999999999817, 11.415049999999908
-22.819999999999816, 11.410049999999908
-22.809999999999814, 11.405049999999907
-22.799999999999812, 11.400049999999906
-22.78999999999981, 11.395049999999905
-22.77999999999981, 11.390049999999905
-22.769999999999808, 11.385049999999904
-22.759999999999806, 11.380049999999903
-22.749999999999805, 11.375049999999902
-22.739999999999803, 11.370049999999901
-22.7299999999998, 11.3650499999999
-22.7199999999998, 11.3600499999999
-22.7099999999998, 11.355049999999899
-22.699999999999797, 11.350049999999898
-22.689999999999795, 11.345049999999897
-22.679999999999794, 11.340049999999897
-22.669999999999792, 11.335049999999896
-22.65999999999979, 11.330049999999895
-22.64999999999979, 11.325049999999894
-22.639999999999787, 11.320049999999894
-22.629999999999786, 11.315049999999893
-22.619999999999784, 11.310049999999892
-22.609999999999783, 11.305049999999891
-22.59999999999978, 11.30004999999989
-22.58999999999978, 11.29504999999989
-22.579999999999778, 11.290049999999889
-22.569999999999776, 11.285049999999888
-22.559999999999775, 11.280049999999887
-22.549999999999773, 11.275049999999887
-22.53999999999977, 11.270049999999886
-22.52999999999977, 11.265049999999885
-22.51999999999977, 11.260049999999884
-22.509999999999767, 11.255049999999883
-22.499999999999766, 11.250049999999883
-22.489999999999764, 11.245049999999882
-22.479999999999762, 11.240049999999881
-22.46999999999976, 11.23504999999988
-22.45999999999976, 11.23004999999988
-22.449999999999758, 11.225049999999879
-22.439999999999756, 11.220049999999878
-22.429999999999755, 11.215049999999877
-22.419999999999753, 11.210049999999876
-22.40999999999975, 11.205049999999876
-22.39999999999975, 11.200049999999875
-22.38999999999975, 11.195049999999874
-22.379999999999747, 11.190049999999873
-22.369999999999745, 11.185049999999872
-22.359999999999744, 11.180049999999872
-22.349999999999742, 11.175049999999871
-22.33999999999974, 11.17004999999987
-22.32999999999974, 11.16504999999987
-22.319999999999737, 11.160049999999869
-22.309999999999736, 11.155049999999868
-22.299999999999734, 11.150049999999867
-22.289999999999733, 11.145049999999866
-22.27999999999973, 11.140049999999865
-22.26999999999973, 11.135049999999865
-22.259999999999728, 11.130049999999864
-22.249999999999726, 11.125049999999863
-22.239999999999725, 11.120049999999862
-22.229999999999723, 11.115049999999862
-22.21999999999972, 11.11004999999986
-22.20999999999972, 11.10504999999986
-22.19999999999972, 11.10004999999986
-22.189999999999717, 11.095049999999858
-22.179999999999715, 11.090049999999858
-22.169999999999714, 11.085049999999857
-22.159999999999712, 11.080049999999856
-22.14999999999971, 11.075049999999855
-22.13999999999971, 11.070049999999855
-22.129999999999708, 11.065049999999854
-22.119999999999706, 11.060049999999853
-22.109999999999705, 11.055049999999852
-22.099999999999703, 11.050049999999851
-22.0899999999997, 11.04504999999985
-22.0799999999997, 11.04004999999985
-22.0699999999997, 11.035049999999849
-22.059999999999697, 11.030049999999848
-22.049999999999695, 11.025049999999847
-22.039999999999694, 11.020049999999847
-22.029999999999692, 11.015049999999846
-22.01999999999969, 11.010049999999845
-22.00999999999969, 11.005049999999844
-21.999999999999687, 11.000049999999844
-21.989999999999686, 10.995049999999843
-21.979999999999684, 10.990049999999842
-21.969999999999683, 10.985049999999841
-21.95999999999968, 10.98004999999984
-21.94999999999968, 10.97504999999984
-21.939999999999678, 10.970049999999839
-21.929999999999676, 10.965049999999838
-21.919999999999675, 10.960049999999837
-21.909999999999673, 10.955049999999837
-21.89999999999967, 10.950049999999836
-21.88999999999967, 10.945049999999835
-21.87999999999967, 10.940049999999834
-21.869999999999667, 10.935049999999833
-21.859999999999665, 10.930049999999833
-21.849999999999664, 10.925049999999832
-21.839999999999662, 10.920049999999831
-21.82999999999966, 10.91504999999983
-21.81999999999966, 10.91004999999983
-21.809999999999658, 10.905049999999829
-21.799999999999656, 10.900049999999828
-21.789999999999655, 10.895049999999827
-21.779999999999653, 10.890049999999826
-21.76999999999965, 10.885049999999826
-21.75999999999965, 10.880049999999825
-21.74999999999965, 10.875049999999824
-21.739999999999647, 10.870049999999823
-21.729999999999645, 10.865049999999822
-21.719999999999644, 10.860049999999822
-21.709999999999642, 10.855049999999821
-21.69999999999964, 10.85004999999982
-21.68999999999964, 10.84504999999982
-21.679999999999637, 10.840049999999819
-21.669999999999636, 10.835049999999818
-21.659999999999634, 10.830049999999817
-21.649999999999633, 10.825049999999816
-21.63999999999963, 10.820049999999815
-21.62999999999963, 10.815049999999815
-21.619999999999628, 10.810049999999814
-21.609999999999626, 10.805049999999813
-21.599999999999625, 10.800049999999812
-21.589999999999623, 10.795049999999812
-21.57999999999962, 10.79004999999981
-21.56999999999962, 10.78504999999981
-21.55999999999962, 10.78004999999981
-21.549999999999617, 10.775049999999808
-21.539999999999615, 10.770049999999808
-21.529999999999614, 10.765049999999807
-21.519999999999612, 10.760049999999806
-21.50999999999961, 10.755049999999805
-21.49999999999961, 10.750049999999804
-21.489999999999608, 10.745049999999804
-21.479999999999606, 10.740049999999803
-21.469999999999605, 10.735049999999802
-21.459999999999603, 10.730049999999801
-21.4499999999996, 10.7250499999998
-21.4399999999996, 10.7200499999998
-21.4299999999996, 10.715049999999799
-21.419999999999597, 10.710049999999798
-21.409999999999595, 10.705049999999797
-21.399999999999594, 10.700049999999797
-21.389999999999592, 10.695049999999796
-21.37999999999959, 10.690049999999795
-21.36999999999959, 10.685049999999794
-21.359999999999587, 10.680049999999794
-21.349999999999586, 10.675049999999793
-21.339999999999584, 10.670049999999792
-21.329999999999583, 10.665049999999791
-21.31999999999958, 10.66004999999979
-21.30999999999958, 10.65504999999979
-21.299999999999578, 10.650049999999789
-21.289999999999576, 10.645049999999788
-21.279999999999575, 10.640049999999787
-21.269999999999573, 10.635049999999787
-21.25999999999957, 10.630049999999786
-21.24999999999957, 10.625049999999785
-21.23999999999957, 10.620049999999784
-21.229999999999567, 10.615049999999783
-21.219999999999565, 10.610049999999783
-21.209999999999564, 10.605049999999782
-21.199999999999562, 10.600049999999781
-21.18999999999956, 10.59504999999978
-21.17999999999956, 10.59004999999978
-21.169999999999558, 10.585049999999779
-21.159999999999556, 10.580049999999778
-21.149999999999554, 10.575049999999777
-21.139999999999553, 10.570049999999776
-21.12999999999955, 10.565049999999776
-21.11999999999955, 10.560049999999775
-21.10999999999955, 10.555049999999774
-21.099999999999547, 10.550049999999773
-21.089999999999545, 10.545049999999772
-21.079999999999544, 10.540049999999772
-21.069999999999542, 10.53504999999977
-21.05999999999954, 10.53004999999977
-21.04999999999954, 10.52504999999977
-21.039999999999537, 10.520049999999769
-21.029999999999536, 10.515049999999768
-21.019999999999534, 10.510049999999767
-21.009999999999533, 10.505049999999766
-20.99999999999953, 10.500049999999765
-20.98999999999953, 10.495049999999765
-20.979999999999528, 10.490049999999764
-20.969999999999526, 10.485049999999763
-20.959999999999525, 10.480049999999762
-20.949999999999523, 10.475049999999761
-20.93999999999952, 10.47004999999976
-20.92999999999952, 10.46504999999976
-20.91999999999952, 10.46004999999976
-20.909999999999517, 10.455049999999758
-20.899999999999515, 10.450049999999758
-20.889999999999514, 10.445049999999757
-20.879999999999512, 10.440049999999756
-20.86999999999951, 10.435049999999755
-20.85999999999951, 10.430049999999754
-20.849999999999508, 10.425049999999754
-20.839999999999506, 10.420049999999753
-20.829999999999504, 10.415049999999752
-20.819999999999503, 10.410049999999751
-20.8099999999995, 10.40504999999975
-20.7999999999995, 10.40004999999975
-20.789999999999498, 10.395049999999749
-20.779999999999497, 10.390049999999748
-20.769999999999495, 10.385049999999747
-20.759999999999494, 10.380049999999747
-20.749999999999492, 10.375049999999746
-20.73999999999949, 10.370049999999745
-20.72999999999949, 10.365049999999744
-20.719999999999487, 10.360049999999744
-20.709999999999486, 10.355049999999743
-20.699999999999484, 10.350049999999742
-20.689999999999483, 10.345049999999741
-20.67999999999948, 10.34004999999974
-20.66999999999948, 10.33504999999974
-20.659999999999478, 10.330049999999739
-20.649999999999476, 10.325049999999738
-20.639999999999475, 10.320049999999737
-20.629999999999473, 10.315049999999736
-20.61999999999947, 10.310049999999736
-20.60999999999947, 10.305049999999735
-20.59999999999947, 10.300049999999734
-20.589999999999467, 10.295049999999733
-20.579999999999465, 10.290049999999733
-20.569999999999464, 10.285049999999732
-20.559999999999462, 10.280049999999731
-20.54999999999946, 10.27504999999973
-20.53999999999946, 10.27004999999973
-20.529999999999458, 10.265049999999729
-20.519999999999456, 10.260049999999728
-20.509999999999454, 10.255049999999727
-20.499999999999453, 10.250049999999726
-20.48999999999945, 10.245049999999726
-20.47999999999945, 10.240049999999725
-20.469999999999448, 10.235049999999724
-20.459999999999447, 10.230049999999723
-20.449999999999445, 10.225049999999722
-20.439999999999444, 10.220049999999722
-20.429999999999442, 10.21504999999972
-20.41999999999944, 10.21004999999972
-20.40999999999944, 10.20504999999972
-20.399999999999437, 10.200049999999719
-20.389999999999436, 10.195049999999718
-20.379999999999434, 10.190049999999717
-20.369999999999433, 10.185049999999716
-20.35999999999943, 10.180049999999715
-20.34999999999943, 10.175049999999715
-20.339999999999428, 10.170049999999714
-20.329999999999426, 10.165049999999713
-20.319999999999425, 10.160049999999712
-20.309999999999423, 10.155049999999711
-20.29999999999942, 10.15004999999971
-20.28999999999942, 10.14504999999971
-20.27999999999942, 10.14004999999971
-20.269999999999417, 10.135049999999708
-20.259999999999415, 10.130049999999708
-20.249999999999414, 10.125049999999707
-20.239999999999412, 10.120049999999706
-20.22999999999941, 10.115049999999705
-20.21999999999941, 10.110049999999704
-20.209999999999408, 10.105049999999704
-20.199999999999406, 10.100049999999703
-20.189999999999404, 10.095049999999702
-20.179999999999403, 10.090049999999701
-20.1699999999994, 10.0850499999997
-20.1599999999994, 10.0800499999997
-20.149999999999398, 10.075049999999699
-20.139999999999397, 10.070049999999698
-20.129999999999395, 10.065049999999697
-20.119999999999393, 10.060049999999697
-20.109999999999392, 10.055049999999696
-20.09999999999939, 10.050049999999695
-20.08999999999939, 10.045049999999694
-20.079999999999387, 10.040049999999693
-20.069999999999386, 10.035049999999693
-20.059999999999384, 10.030049999999692
-20.049999999999383, 10.025049999999691
-20.03999999999938, 10.02004999999969
-20.02999999999938, 10.01504999999969
-20.019999999999378, 10.010049999999689
-20.009999999999376, 10.005049999999688
-19.999999999999375, 10.000049999999687
-19.989999999999373, 9.995049999999686
-19.97999999999937, 9.990049999999686
-19.96999999999937, 9.985049999999685
-19.95999999999937, 9.980049999999684
-19.949999999999367, 9.975049999999683
-19.939999999999365, 9.970049999999683
-19.929999999999364, 9.965049999999682
-19.919999999999362, 9.960049999999681
-19.90999999999936, 9.95504999999968
-19.89999999999936, 9.95004999999968
-19.889999999999358, 9.945049999999679
-19.879999999999356, 9.940049999999678
-19.869999999999354, 9.935049999999677
-19.859999999999353, 9.930049999999676
-19.84999999999935, 9.925049999999676
-19.83999999999935, 9.920049999999675
-19.829999999999348, 9.915049999999674
-19.819999999999347, 9.910049999999673
-19.809999999999345, 9.905049999999672
-19.799999999999343, 9.900049999999672
-19.789999999999342, 9.89504999999967
-19.77999999999934, 9.89004999999967
-19.76999999999934, 9.88504999999967
-19.759999999999337, 9.880049999999668
-19.749999999999336, 9.875049999999668
-19.739999999999334, 9.870049999999667
-19.729999999999333, 9.865049999999666
-19.71999999999933, 9.860049999999665
-19.70999999999933, 9.855049999999665
-19.699999999999328, 9.850049999999664
-19.689999999999326, 9.845049999999663
-19.679999999999325, 9.840049999999662
-19.669999999999323, 9.835049999999661
-19.65999999999932, 9.83004999999966
-19.64999999999932, 9.82504999999966
-19.63999999999932, 9.820049999999659
-19.629999999999317, 9.815049999999658
-19.619999999999315, 9.810049999999658
-19.609999999999314, 9.805049999999657
-19.599999999999312, 9.800049999999656
-19.58999999999931, 9.795049999999655
-19.57999999999931, 9.790049999999654
-19.569999999999308, 9.785049999999654
-19.559999999999306, 9.780049999999653
-19.549999999999304, 9.775049999999652
-19.539999999999303, 9.770049999999651
-19.5299999999993, 9.76504999999965
-19.5199999999993, 9.76004999999965
-19.509999999999298, 9.755049999999649
-19.499999999999297, 9.750049999999648
-19.489999999999295, 9.745049999999647
-19.479999999999293, 9.740049999999647
-19.469999999999292, 9.735049999999646
-19.45999999999929, 9.730049999999645
-19.44999999999929, 9.725049999999644
-19.439999999999287, 9.720049999999643
-19.429999999999286, 9.715049999999643
-19.419999999999284, 9.710049999999642
-19.409999999999282, 9.705049999999641
-19.39999999999928, 9.70004999999964
-19.38999999999928, 9.69504999999964
-19.379999999999278, 9.690049999999639
-19.369999999999276, 9.685049999999638
-19.359999999999275, 9.680049999999637
-19.349999999999273, 9.675049999999636
-19.33999999999927, 9.670049999999636
-19.32999999999927, 9.665049999999635
-19.31999999999927, 9.660049999999634
-19.309999999999267, 9.655049999999633
-19.299999999999265, 9.650049999999633
-19.289999999999264, 9.645049999999632
-19.279999999999262, 9.640049999999631
-19.26999999999926, 9.63504999999963
-19.25999999999926, 9.63004999999963
-19.249999999999257, 9.625049999999629
-19.239999999999256, 9.620049999999628
-19.229999999999254, 9.615049999999627
-19.219999999999253, 9.610049999999626
-19.20999999999925, 9.605049999999625
-19.19999999999925, 9.600049999999625
-19.189999999999248, 9.595049999999624
-19.179999999999247, 9.590049999999623
-19.169999999999245, 9.585049999999622
-19.159999999999243, 9.580049999999622
-19.149999999999242, 9.57504999999962
-19.13999999999924, 9.57004999999962
-19.12999999999924, 9.56504999999962
-19.119999999999237, 9.560049999999618
-19.109999999999236, 9.555049999999618
-19.099999999999234, 9.550049999999617
-19.089999999999232, 9.545049999999616
-19.07999999999923, 9.540049999999615
-19.06999999999923, 9.535049999999615
-19.059999999999228, 9.530049999999614
-19.049999999999226, 9.525049999999613
-19.039999999999225, 9.520049999999612
-19.029999999999223, 9.515049999999611
-19.01999999999922, 9.51004999999961
-19.00999999999922, 9.50504999999961
-18.99999999999922, 9.500049999999609
-18.989999999999217, 9.495049999999608
-18.979999999999215, 9.490049999999608
-18.969999999999214, 9.485049999999607
-18.959999999999212, 9.480049999999606
-18.94999999999921, 9.475049999999605
-18.93999999999921, 9.470049999999604
-18.929999999999207, 9.465049999999604
-18.919999999999206, 9.460049999999603
-18.909999999999204, 9.455049999999602
-18.899999999999203, 9.450049999999601
-18.8899999999992, 9.4450499999996
-18.8799999999992, 9.4400499999996
-18.869999999999198, 9.435049999999599
-18.859999999999197, 9.430049999999598
-18.849999999999195, 9.425049999999597
-18.839999999999193, 9.420049999999597
-18.829999999999192, 9.415049999999596
-18.81999999999919, 9.410049999999595
-18.80999999999919, 9.405049999999594
-18.799999999999187, 9.400049999999593
-18.789999999999186, 9.395049999999593
-18.779999999999184, 9.390049999999592
-18.769999999999182, 9.385049999999591
-18.75999999999918, 9.38004999999959
-18.74999999999918, 9.37504999999959
-18.739999999999178, 9.370049999999589
-18.729999999999176, 9.365049999999588
-18.719999999999175, 9.360049999999587
-18.709999999999173, 9.355049999999586
-18.69999999999917, 9.350049999999586
-18.68999999999917, 9.345049999999585
-18.67999999999917, 9.340049999999584
-18.669999999999167, 9.335049999999583
-18.659999999999165, 9.330049999999583
-18.649999999999164, 9.325049999999582
-18.639999999999162, 9.320049999999581
-18.62999999999916, 9.31504999999958
-18.61999999999916, 9.31004999999958
-18.609999999999157, 9.305049999999579
-18.599999999999156, 9.300049999999578
-18.589999999999154, 9.295049999999577
-18.579999999999153, 9.290049999999576
-18.56999999999915, 9.285049999999575
-18.55999999999915, 9.280049999999575
-18.549999999999148, 9.275049999999574
-18.539999999999146, 9.270049999999573
-18.529999999999145, 9.265049999999572
-18.519999999999143, 9.260049999999572
-18.509999999999142, 9.25504999999957
-18.49999999999914, 9.25004999999957
-18.48999999999914, 9.24504999999957
-18.479999999999137, 9.240049999999568
-18.469999999999136, 9.235049999999568
-18.459999999999134, 9.230049999999567
-18.449999999999132, 9.225049999999566
-18.43999999999913, 9.220049999999565
-18.42999999999913, 9.215049999999565
-18.419999999999128, 9.210049999999564
-18.409999999999126, 9.205049999999563
-18.399999999999125, 9.200049999999562
-18.389999999999123, 9.195049999999561
-18.37999999999912, 9.19004999999956
-18.36999999999912, 9.18504999999956
-18.35999999999912, 9.180049999999559
-18.349999999999117, 9.175049999999558
-18.339999999999115, 9.170049999999557
-18.329999999999114, 9.165049999999557
-18.319999999999112, 9.160049999999556
-18.30999999999911, 9.155049999999555
-18.29999999999911, 9.150049999999554
-18.289999999999107, 9.145049999999554
-18.279999999999106, 9.140049999999553
-18.269999999999104, 9.135049999999552
-18.259999999999103, 9.130049999999551
-18.2499999999991, 9.12504999999955
-18.2399999999991, 9.12004999999955
-18.229999999999098, 9.115049999999549
-18.219999999999096, 9.110049999999548
-18.209999999999095, 9.105049999999547
-18.199999999999093, 9.100049999999547
-18.189999999999092, 9.095049999999546
-18.17999999999909, 9.090049999999545
-18.16999999999909, 9.085049999999544
-18.159999999999087, 9.080049999999543
-18.149999999999086, 9.075049999999543
-18.139999999999084, 9.070049999999542
-18.129999999999082, 9.065049999999541
-18.11999999999908, 9.06004999999954
-18.10999999999908, 9.05504999999954
-18.099999999999078, 9.050049999999539
-18.089999999999076, 9.045049999999538
-18.079999999999075, 9.040049999999537
-18.069999999999073, 9.035049999999536
-18.05999999999907, 9.030049999999536
-18.04999999999907, 9.025049999999535
-18.03999999999907, 9.020049999999534
-18.029999999999067, 9.015049999999533
-18.019999999999065, 9.010049999999532
-18.009999999999064, 9.005049999999532
-17.999999999999062, 9.000049999999531
-17.98999999999906, 8.99504999999953
-17.97999999999906, 8.99004999999953
-17.969999999999057, 8.985049999999529
-17.959999999999056, 8.980049999999528
-17.949999999999054, 8.975049999999527
-17.939999999999053, 8.970049999999526
-17.92999999999905, 8.965049999999525
-17.91999999999905, 8.960049999999525
-17.909999999999048, 8.955049999999524
-17.899999999999046, 8.950049999999523
-17.889999999999045, 8.945049999999522
-17.879999999999043, 8.940049999999522
-17.86999999999904, 8.93504999999952
-17.85999999999904, 8.93004999999952
-17.84999999999904, 8.92504999999952
-17.839999999999037, 8.920049999999518
-17.829999999999036, 8.915049999999518
-17.819999999999034, 8.910049999999517
-17.809999999999032, 8.905049999999516
-17.79999999999903, 8.900049999999515
-17.78999999999903, 8.895049999999515
-17.779999999999028, 8.890049999999514
-17.769999999999026, 8.885049999999513
-17.759999999999025, 8.880049999999512
-17.749999999999023, 8.875049999999511
-17.73999999999902, 8.87004999999951
-17.72999999999902, 8.86504999999951
-17.71999999999902, 8.860049999999509
-17.709999999999017, 8.855049999999508
-17.699999999999015, 8.850049999999507
-17.689999999999014, 8.845049999999507
-17.679999999999012, 8.840049999999506
-17.66999999999901, 8.835049999999505
-17.65999999999901, 8.830049999999504
-17.649999999999007, 8.825049999999504
-17.639999999999006, 8.820049999999503
-17.629999999999004, 8.815049999999502
-17.619999999999003, 8.810049999999501
-17.609999999999, 8.8050499999995
-17.599999999999, 8.8000499999995
-17.589999999998998, 8.795049999999499
-17.579999999998996, 8.790049999999498
-17.569999999998995, 8.785049999999497
-17.559999999998993, 8.780049999999497
-17.54999999999899, 8.775049999999496
-17.53999999999899, 8.770049999999495
-17.52999999999899, 8.765049999999494
-17.519999999998987, 8.760049999999493
-17.509999999998985, 8.755049999999493
-17.499999999998984, 8.750049999999492
-17.489999999998982, 8.745049999999491
-17.47999999999898, 8.74004999999949
-17.46999999999898, 8.73504999999949
-17.459999999998978, 8.730049999999489
-17.449999999998976, 8.725049999999488
-17.439999999998975, 8.720049999999487
-17.429999999998973, 8.715049999999486
-17.41999999999897, 8.710049999999486
-17.40999999999897, 8.705049999999485
-17.39999999999897, 8.700049999999484
-17.389999999998967, 8.695049999999483
-17.379999999998965, 8.690049999999482
-17.369999999998964, 8.685049999999482
-17.359999999998962, 8.680049999999481
-17.34999999999896, 8.67504999999948
-17.33999999999896, 8.67004999999948
-17.329999999998957, 8.665049999999479
-17.319999999998956, 8.660049999999478
-17.309999999998954, 8.655049999999477
-17.299999999998953, 8.650049999999476
-17.28999999999895, 8.645049999999475
-17.27999999999895, 8.640049999999475
-17.269999999998948, 8.635049999999474
-17.259999999998946, 8.630049999999473
-17.249999999998945, 8.625049999999472
-17.239999999998943, 8.620049999999472
-17.22999999999894, 8.61504999999947
-17.21999999999894, 8.61004999999947
-17.20999999999894, 8.60504999999947
-17.199999999998937, 8.600049999999468
-17.189999999998935, 8.595049999999468
-17.179999999998934, 8.590049999999467
-17.169999999998932, 8.585049999999466
-17.15999999999893, 8.580049999999465
-17.14999999999893, 8.575049999999464
-17.139999999998928, 8.570049999999464
-17.129999999998926, 8.565049999999463
-17.119999999998925, 8.560049999999462
-17.109999999998923, 8.555049999999461
-17.09999999999892, 8.55004999999946
-17.08999999999892, 8.54504999999946
-17.07999999999892, 8.540049999999459
-17.069999999998917, 8.535049999999458
-17.059999999998915, 8.530049999999457
-17.049999999998914, 8.525049999999457
-17.039999999998912, 8.520049999999456
-17.02999999999891, 8.515049999999455
-17.01999999999891, 8.510049999999454
-17.009999999998907, 8.505049999999454
-16.999999999998906, 8.500049999999453
-16.989999999998904, 8.495049999999452
-16.979999999998903, 8.490049999999451
-16.9699999999989, 8.48504999999945
-16.9599999999989, 8.48004999999945
-16.949999999998898, 8.475049999999449
-16.939999999998896, 8.470049999999448
-16.929999999998895, 8.465049999999447
-16.919999999998893, 8.460049999999447
-16.90999999999889, 8.455049999999446
-16.89999999999889, 8.450049999999445
-16.88999999999889, 8.445049999999444
-16.879999999998887, 8.440049999999443
-16.869999999998885, 8.435049999999443
-16.859999999998884, 8.430049999999442
-16.849999999998882, 8.425049999999441
-16.83999999999888, 8.42004999999944
-16.82999999999888, 8.41504999999944
-16.819999999998878, 8.410049999999439
-16.809999999998876, 8.405049999999438
-16.799999999998875, 8.400049999999437
-16.789999999998873, 8.395049999999436
-16.77999999999887, 8.390049999999436
-16.76999999999887, 8.385049999999435
-16.75999999999887, 8.380049999999434
-16.749999999998867, 8.375049999999433
-16.739999999998865, 8.370049999999432
-16.729999999998864, 8.365049999999432
-16.719999999998862, 8.36004999999943
-16.70999999999886, 8.35504999999943
-16.69999999999886, 8.35004999999943
-16.689999999998857, 8.345049999999429
-16.679999999998856, 8.340049999999428
-16.669999999998854, 8.335049999999427
-16.659999999998853, 8.330049999999426
-16.64999999999885, 8.325049999999425
-16.63999999999885, 8.320049999999425
-16.629999999998848, 8.315049999999424
-16.619999999998846, 8.310049999999423
-16.609999999998845, 8.305049999999422
-16.599999999998843, 8.300049999999422
-16.58999999999884, 8.29504999999942
-16.57999999999884, 8.29004999999942
-16.56999999999884, 8.28504999999942
-16.559999999998837, 8.280049999999418
-16.549999999998835, 8.275049999999418
-16.539999999998834, 8.270049999999417
-16.529999999998832, 8.265049999999416
-16.51999999999883, 8.260049999999415
-16.50999999999883, 8.255049999999414
-16.499999999998828, 8.250049999999414
-16.489999999998826, 8.245049999999413
-16.479999999998824, 8.240049999999412
-16.469999999998823, 8.235049999999411
-16.45999999999882, 8.23004999999941
-16.44999999999882, 8.22504999999941
-16.43999999999882, 8.220049999999409
-16.429999999998817, 8.215049999999408
-16.419999999998815, 8.210049999999407
-16.409999999998814, 8.205049999999407
-16.399999999998812, 8.200049999999406
-16.38999999999881, 8.195049999999405
-16.37999999999881, 8.190049999999404
-16.369999999998807, 8.185049999999404
-16.359999999998806, 8.180049999999403
-16.349999999998804, 8.175049999999402
-16.339999999998803, 8.170049999999401
-16.3299999999988, 8.1650499999994
-16.3199999999988, 8.1600499999994
-16.309999999998798, 8.155049999999399
-16.299999999998796, 8.150049999999398
-16.289999999998795, 8.145049999999397
-16.279999999998793, 8.140049999999396
-16.26999999999879, 8.135049999999396
-16.25999999999879, 8.130049999999395
-16.24999999999879, 8.125049999999394
-16.239999999998787, 8.120049999999393
-16.229999999998785, 8.115049999999393
-16.219999999998784, 8.110049999999392
-16.209999999998782, 8.105049999999391
-16.19999999999878, 8.10004999999939
-16.18999999999878, 8.09504999999939
-16.179999999998778, 8.090049999999389
-16.169999999998776, 8.085049999999388
-16.159999999998774, 8.080049999999387
-16.149999999998773, 8.075049999999386
-16.13999999999877, 8.070049999999386
-16.12999999999877, 8.065049999999385
-16.119999999998768, 8.060049999999384
-16.109999999998767, 8.055049999999383
-16.099999999998765, 8.050049999999382
-16.089999999998764, 8.045049999999382
-16.079999999998762, 8.04004999999938
-16.06999999999876, 8.03504999999938
-16.05999999999876, 8.03004999999938
-16.049999999998757, 8.025049999999379
-16.039999999998756, 8.020049999999378
-16.029999999998754, 8.015049999999377
-16.019999999998753, 8.010049999999376
-16.00999999999875, 8.005049999999375
-15.999999999998751, 8.000049999999376
-15.989999999998751, 7.995049999999376
-15.979999999998752, 7.990049999999376
-15.969999999998752, 7.985049999999376
-15.959999999998752, 7.980049999999376
-15.949999999998752, 7.975049999999376
-15.939999999998753, 7.970049999999376
-15.929999999998753, 7.965049999999376
-15.919999999998753, 7.960049999999376
-15.909999999998753, 7.9550499999993765
-15.899999999998753, 7.950049999999377
-15.889999999998754, 7.945049999999377
-15.879999999998754, 7.940049999999377
-15.869999999998754, 7.935049999999377
-15.859999999998754, 7.930049999999377
-15.849999999998754, 7.925049999999377
-15.839999999998755, 7.920049999999377
-15.829999999998755, 7.915049999999377
-15.819999999998755, 7.910049999999377
-15.809999999998755, 7.9050499999993775
-15.799999999998755, 7.900049999999378
-15.789999999998756, 7.895049999999378
-15.779999999998756, 7.890049999999378
-15.769999999998756, 7.885049999999378
-15.759999999998756, 7.880049999999378
-15.749999999998757, 7.875049999999378
-15.739999999998757, 7.870049999999378
-15.729999999998757, 7.865049999999378
-15.719999999998757, 7.8600499999993785
-15.709999999998757, 7.855049999999379
-15.699999999998758, 7.850049999999379
-15.689999999998758, 7.845049999999379
-15.679999999998758, 7.840049999999379
-15.669999999998758, 7.835049999999379
-15.659999999998758, 7.830049999999379
-15.649999999998759, 7.825049999999379
-15.639999999998759, 7.820049999999379
-15.629999999998759, 7.815049999999379
-15.61999999999876, 7.8100499999993795
-15.60999999999876, 7.80504999999938
-15.59999999999876, 7.80004999999938
-15.58999999999876, 7.79504999999938
-15.57999999999876, 7.79004999999938
-15.56999999999876, 7.78504999999938
-15.55999999999876, 7.78004999999938
-15.54999999999876, 7.77504999999938
-15.539999999998761, 7.77004999999938
-15.529999999998761, 7.7650499999993805
-15.519999999998761, 7.760049999999381
-15.509999999998762, 7.755049999999381
-15.499999999998762, 7.750049999999381
-15.489999999998762, 7.745049999999381
-15.479999999998762, 7.740049999999381
-15.469999999998763, 7.735049999999381
-15.459999999998763, 7.730049999999381
-15.449999999998763, 7.725049999999381
-15.439999999998763, 7.7200499999993815
-15.429999999998763, 7.715049999999382
-15.419999999998764, 7.710049999999382
-15.409999999998764, 7.705049999999382
-15.399999999998764, 7.700049999999382
-15.389999999998764, 7.695049999999382
-15.379999999998764, 7.690049999999382
-15.369999999998765, 7.685049999999382
-15.359999999998765, 7.680049999999382
-15.349999999998765, 7.675049999999382
-15.339999999998765, 7.6700499999993825
-15.329999999998766, 7.665049999999383
-15.319999999998766, 7.660049999999383
-15.309999999998766, 7.655049999999383
-15.299999999998766, 7.650049999999383
-15.289999999998766, 7.645049999999383
-15.279999999998767, 7.640049999999383
-15.269999999998767, 7.635049999999383
-15.259999999998767, 7.630049999999383
-15.249999999998767, 7.6250499999993835
-15.239999999998767, 7.620049999999384
-15.229999999998768, 7.615049999999384
-15.219999999998768, 7.610049999999384
-15.209999999998768, 7.605049999999384
-15.199999999998768, 7.600049999999384
-15.189999999998768, 7.595049999999384
-15.179999999998769, 7.590049999999384
-15.169999999998769, 7.585049999999384
-15.15999999999877, 7.5800499999993844
-15.14999999999877, 7.5750499999993846
-15.13999999999877, 7.570049999999385
-15.12999999999877, 7.565049999999385
-15.11999999999877, 7.560049999999385
-15.10999999999877, 7.555049999999385
-15.09999999999877, 7.550049999999385
-15.08999999999877, 7.545049999999385
-15.07999999999877, 7.540049999999385
-15.069999999998771, 7.535049999999385
-15.059999999998771, 7.5300499999993855
-15.049999999998771, 7.525049999999386
-15.039999999998772, 7.520049999999386
-15.029999999998772, 7.515049999999386
-15.019999999998772, 7.510049999999386
-15.009999999998772, 7.505049999999386
-14.999999999998773, 7.500049999999386
-14.989999999998773, 7.495049999999386
-14.979999999998773, 7.490049999999386
-14.969999999998773, 7.4850499999993865
-14.959999999998773, 7.480049999999387
-14.949999999998774, 7.475049999999387
-14.939999999998774, 7.470049999999387
-14.929999999998774, 7.465049999999387
-14.919999999998774, 7.460049999999387
-14.909999999998774, 7.455049999999387
-14.899999999998775, 7.450049999999387
-14.889999999998775, 7.445049999999387
-14.879999999998775, 7.440049999999387
-14.869999999998775, 7.4350499999993875
-14.859999999998776, 7.430049999999388
-14.849999999998776, 7.425049999999388
-14.839999999998776, 7.420049999999388
-14.829999999998776, 7.415049999999388
-14.819999999998776, 7.410049999999388
-14.809999999998777, 7.405049999999388
-14.799999999998777, 7.400049999999388
-14.789999999998777, 7.395049999999388
-14.779999999998777, 7.3900499999993885
-14.769999999998777, 7.385049999999389
-14.759999999998778, 7.380049999999389
-14.749999999998778, 7.375049999999389
-14.739999999998778, 7.370049999999389
-14.729999999998778, 7.365049999999389
-14.719999999998779, 7.360049999999389
-14.709999999998779, 7.355049999999389
-14.699999999998779, 7.350049999999389
-14.68999999999878, 7.3450499999993895
-14.67999999999878, 7.34004999999939
-14.66999999999878, 7.33504999999939
-14.65999999999878, 7.33004999999939
-14.64999999999878, 7.32504999999939
-14.63999999999878, 7.32004999999939
-14.62999999999878, 7.31504999999939
-14.61999999999878, 7.31004999999939
-14.60999999999878, 7.30504999999939
-14.599999999998781, 7.30004999999939
-14.589999999998781, 7.2950499999993905
-14.579999999998781, 7.290049999999391
-14.569999999998782, 7.285049999999391
-14.559999999998782, 7.280049999999391
-14.549999999998782, 7.275049999999391
-14.539999999998782, 7.270049999999391
-14.529999999998783, 7.265049999999391
-14.519999999998783, 7.260049999999391
-14.509999999998783, 7.255049999999391
-14.499999999998783, 7.2500499999993915
-14.489999999998783, 7.245049999999392
-14.479999999998784, 7.240049999999392
-14.469999999998784, 7.235049999999392
-14.459999999998784, 7.230049999999392
-14.449999999998784, 7.225049999999392
-14.439999999998784, 7.220049999999392
-14.429999999998785, 7.215049999999392
-14.419999999998785, 7.210049999999392
-14.409999999998785, 7.205049999999392
-14.399999999998785, 7.2000499999993925
-14.389999999998786, 7.195049999999393
-14.379999999998786, 7.190049999999393
-14.369999999998786, 7.185049999999393
-14.359999999998786, 7.180049999999393
-14.349999999998786, 7.175049999999393
-14.339999999998787, 7.170049999999393
-14.329999999998787, 7.165049999999393
-14.319999999998787, 7.160049999999393
-14.309999999998787, 7.1550499999993935
-14.299999999998787, 7.150049999999394
-14.289999999998788, 7.145049999999394
-14.279999999998788, 7.140049999999394
-14.269999999998788, 7.135049999999394
-14.259999999998788, 7.130049999999394
-14.249999999998789, 7.125049999999394
-14.239999999998789, 7.120049999999394
-14.229999999998789, 7.115049999999394
-14.21999999999879, 7.1100499999993945
-14.20999999999879, 7.105049999999395
-14.19999999999879, 7.100049999999395
-14.18999999999879, 7.095049999999395
-14.17999999999879, 7.090049999999395
-14.16999999999879, 7.085049999999395
-14.15999999999879, 7.080049999999395
-14.14999999999879, 7.075049999999395
-14.13999999999879, 7.070049999999395
-14.129999999998791, 7.065049999999395
-14.119999999998791, 7.0600499999993955
-14.109999999998792, 7.055049999999396
-14.099999999998792, 7.050049999999396
-14.089999999998792, 7.045049999999396
-14.079999999998792, 7.040049999999396
-14.069999999998792, 7.035049999999396
-14.059999999998793, 7.030049999999396
-14.049999999998793, 7.025049999999396
-14.039999999998793, 7.020049999999396
-14.029999999998793, 7.0150499999993965
-14.019999999998793, 7.010049999999397
-14.009999999998794, 7.005049999999397
-13.999999999998794, 7.000049999999397
-13.989999999998794, 6.995049999999397
-13.979999999998794, 6.990049999999397
-13.969999999998794, 6.985049999999397
-13.959999999998795, 6.980049999999397
-13.949999999998795, 6.975049999999397
-13.939999999998795, 6.9700499999993974
-13.929999999998795, 6.965049999999398
-13.919999999998796, 6.960049999999398
-13.909999999998796, 6.955049999999398
-13.899999999998796, 6.950049999999398
-13.889999999998796, 6.945049999999398
-13.879999999998796, 6.940049999999398
-13.869999999998797, 6.935049999999398
-13.859999999998797, 6.930049999999398
-13.849999999998797, 6.925049999999398
-13.839999999998797, 6.9200499999993985
-13.829999999998797, 6.915049999999399
-13.819999999998798, 6.910049999999399
-13.809999999998798, 6.905049999999399
-13.799999999998798, 6.900049999999399
-13.789999999998798, 6.895049999999399
-13.779999999998799, 6.890049999999399
-13.769999999998799, 6.885049999999399
-13.759999999998799, 6.880049999999399
-13.7499999999988, 6.8750499999993995
-13.7399999999988, 6.8700499999994
-13.7299999999988, 6.8650499999994
-13.7199999999988, 6.8600499999994
-13.7099999999988, 6.8550499999994
-13.6999999999988, 6.8500499999994
-13.6899999999988, 6.8450499999994
-13.6799999999988, 6.8400499999994
-13.6699999999988, 6.8350499999994
-13.659999999998801, 6.8300499999994
-13.649999999998801, 6.8250499999994005
-13.639999999998802, 6.820049999999401
-13.629999999998802, 6.815049999999401
-13.619999999998802, 6.810049999999401
-13.609999999998802, 6.805049999999401
-13.599999999998802, 6.800049999999401
-13.589999999998803, 6.795049999999401
-13.579999999998803, 6.790049999999401
-13.569999999998803, 6.785049999999401
-13.559999999998803, 6.7800499999994015
-13.549999999998803, 6.775049999999402
-13.539999999998804, 6.770049999999402
-13.529999999998804, 6.765049999999402
-13.519999999998804, 6.760049999999402
-13.509999999998804, 6.755049999999402
-13.499999999998805, 6.750049999999402
-13.489999999998805, 6.745049999999402
-13.479999999998805, 6.740049999999402
-13.469999999998805, 6.7350499999994025
-13.459999999998805, 6.730049999999403
-13.449999999998806, 6.725049999999403
-13.439999999998806, 6.720049999999403
-13.429999999998806, 6.715049999999403
-13.419999999998806, 6.710049999999403
-13.409999999998806, 6.705049999999403
-13.399999999998807, 6.700049999999403
-13.389999999998807, 6.695049999999403
-13.379999999998807, 6.690049999999403
-13.369999999998807, 6.6850499999994035
-13.359999999998807, 6.680049999999404
-13.349999999998808, 6.675049999999404
-13.339999999998808, 6.670049999999404
-13.329999999998808, 6.665049999999404
-13.319999999998808, 6.660049999999404
-13.309999999998809, 6.655049999999404
-13.299999999998809, 6.650049999999404
-13.289999999998809, 6.645049999999404
-13.27999999999881, 6.6400499999994045
-13.26999999999881, 6.635049999999405
-13.25999999999881, 6.630049999999405
-13.24999999999881, 6.625049999999405
-13.23999999999881, 6.620049999999405
-13.22999999999881, 6.615049999999405
-13.21999999999881, 6.610049999999405
-13.20999999999881, 6.605049999999405
-13.199999999998811, 6.600049999999405
-13.189999999998811, 6.595049999999405
-13.179999999998811, 6.5900499999994055
-13.169999999998812, 6.585049999999406
-13.159999999998812, 6.580049999999406
-13.149999999998812, 6.575049999999406
-13.139999999998812, 6.570049999999406
-13.129999999998812, 6.565049999999406
-13.119999999998813, 6.560049999999406
-13.109999999998813, 6.555049999999406
-13.099999999998813, 6.550049999999406
-13.089999999998813, 6.5450499999994065
-13.079999999998813, 6.540049999999407
-13.069999999998814, 6.535049999999407
-13.059999999998814, 6.530049999999407
-13.049999999998814, 6.525049999999407
-13.039999999998814, 6.520049999999407
-13.029999999998815, 6.515049999999407
-13.019999999998815, 6.510049999999407
-13.009999999998815, 6.505049999999407
-12.999999999998815, 6.5000499999994075
-12.989999999998815, 6.495049999999408
-12.979999999998816, 6.490049999999408
-12.969999999998816, 6.485049999999408
-12.959999999998816, 6.480049999999408
-12.949999999998816, 6.475049999999408
-12.939999999998816, 6.470049999999408
-12.929999999998817, 6.465049999999408
-12.919999999998817, 6.460049999999408
-12.909999999998817, 6.455049999999408
-12.899999999998817, 6.4500499999994085
-12.889999999998818, 6.445049999999409
-12.879999999998818, 6.440049999999409
-12.869999999998818, 6.435049999999409
-12.859999999998818, 6.430049999999409
-12.849999999998818, 6.425049999999409
-12.839999999998819, 6.420049999999409
-12.829999999998819, 6.415049999999409
-12.819999999998819, 6.410049999999409
-12.80999999999882, 6.4050499999994095
-12.79999999999882, 6.40004999999941
-12.78999999999882, 6.39504999999941
-12.77999999999882, 6.39004999999941
-12.76999999999882, 6.38504999999941
-12.75999999999882, 6.38004999999941
-12.74999999999882, 6.37504999999941
-12.73999999999882, 6.37004999999941
-12.729999999998821, 6.36504999999941
-12.719999999998821, 6.3600499999994105
-12.709999999998821, 6.355049999999411
-12.699999999998822, 6.350049999999411
-12.689999999998822, 6.345049999999411
-12.679999999998822, 6.340049999999411
-12.669999999998822, 6.335049999999411
-12.659999999998822, 6.330049999999411
-12.649999999998823, 6.325049999999411
-12.639999999998823, 6.320049999999411
-12.629999999998823, 6.315049999999411
-12.619999999998823, 6.3100499999994115
-12.609999999998823, 6.305049999999412
-12.599999999998824, 6.300049999999412
-12.589999999998824, 6.295049999999412
-12.579999999998824, 6.290049999999412
-12.569999999998824, 6.285049999999412
-12.559999999998825, 6.280049999999412
-12.549999999998825, 6.275049999999412
-12.539999999998825, 6.270049999999412
-12.529999999998825, 6.2650499999994125
-12.519999999998825, 6.260049999999413
-12.509999999998826, 6.255049999999413
-12.499999999998826, 6.250049999999413
-12.489999999998826, 6.245049999999413
-12.479999999998826, 6.240049999999413
-12.469999999998826, 6.235049999999413
-12.459999999998827, 6.230049999999413
-12.449999999998827, 6.225049999999413
-12.439999999998827, 6.220049999999413
-12.429999999998827, 6.2150499999994135
-12.419999999998828, 6.210049999999414
-12.409999999998828, 6.205049999999414
-12.399999999998828, 6.200049999999414
-12.389999999998828, 6.195049999999414
-12.379999999998828, 6.190049999999414
-12.369999999998829, 6.185049999999414
-12.359999999998829, 6.180049999999414
-12.349999999998829, 6.175049999999414
-12.33999999999883, 6.1700499999994145
-12.32999999999883, 6.165049999999415
-12.31999999999883, 6.160049999999415
-12.30999999999883, 6.155049999999415
-12.29999999999883, 6.150049999999415
-12.28999999999883, 6.145049999999415
-12.27999999999883, 6.140049999999415
-12.26999999999883, 6.135049999999415
-12.259999999998831, 6.130049999999415
-12.249999999998831, 6.1250499999994155
-12.239999999998831, 6.120049999999416
-12.229999999998832, 6.115049999999416
-12.219999999998832, 6.110049999999416
-12.209999999998832, 6.105049999999416
-12.199999999998832, 6.100049999999416
-12.189999999998832, 6.095049999999416
-12.179999999998833, 6.090049999999416
-12.169999999998833, 6.085049999999416
-12.159999999998833, 6.080049999999416
-12.149999999998833, 6.0750499999994165
-12.139999999998834, 6.070049999999417
-12.129999999998834, 6.065049999999417
-12.119999999998834, 6.060049999999417
-12.109999999998834, 6.055049999999417
-12.099999999998834, 6.050049999999417
-12.089999999998835, 6.045049999999417
-12.079999999998835, 6.040049999999417
-12.069999999998835, 6.035049999999417
-12.059999999998835, 6.0300499999994175
-12.049999999998835, 6.025049999999418
-12.039999999998836, 6.020049999999418
-12.029999999998836, 6.015049999999418
-12.019999999998836, 6.010049999999418
-12.009999999998836, 6.005049999999418
-11.999999999998836, 6.000049999999418
-11.989999999998837, 5.995049999999418
-11.979999999998837, 5.990049999999418
-11.969999999998837, 5.9850499999994184
-11.959999999998837, 5.9800499999994186
-11.949999999998838, 5.975049999999419
-11.939999999998838, 5.970049999999419
-11.929999999998838, 5.965049999999419
-11.919999999998838, 5.960049999999419
-11.909999999998838, 5.955049999999419
-11.899999999998839, 5.950049999999419
-11.889999999998839, 5.945049999999419
-11.879999999998839, 5.940049999999419
-11.86999999999884, 5.9350499999994195
-11.85999999999884, 5.93004999999942
-11.84999999999884, 5.92504999999942
-11.83999999999884, 5.92004999999942
-11.82999999999884, 5.91504999999942
-11.81999999999884, 5.91004999999942
-11.80999999999884, 5.90504999999942
-11.79999999999884, 5.90004999999942
-11.789999999998841, 5.89504999999942
-11.779999999998841, 5.8900499999994205
-11.769999999998841, 5.885049999999421
-11.759999999998842, 5.880049999999421
-11.749999999998842, 5.875049999999421
-11.739999999998842, 5.870049999999421
-11.729999999998842, 5.865049999999421
-11.719999999998842, 5.860049999999421
-11.709999999998843, 5.855049999999421
-11.699999999998843, 5.850049999999421
-11.689999999998843, 5.845049999999421
-11.679999999998843, 5.8400499999994215
-11.669999999998844, 5.835049999999422
-11.659999999998844, 5.830049999999422
-11.649999999998844, 5.825049999999422
-11.639999999998844, 5.820049999999422
-11.629999999998844, 5.815049999999422
-11.619999999998845, 5.810049999999422
-11.609999999998845, 5.805049999999422
-11.599999999998845, 5.800049999999422
-11.589999999998845, 5.7950499999994225
-11.579999999998845, 5.790049999999423
-11.569999999998846, 5.785049999999423
-11.559999999998846, 5.780049999999423
-11.549999999998846, 5.775049999999423
-11.539999999998846, 5.770049999999423
-11.529999999998847, 5.765049999999423
-11.519999999998847, 5.760049999999423
-11.509999999998847, 5.755049999999423
-11.499999999998847, 5.7500499999994235
-11.489999999998847, 5.745049999999424
-11.479999999998848, 5.740049999999424
-11.469999999998848, 5.735049999999424
-11.459999999998848, 5.730049999999424
-11.449999999998848, 5.725049999999424
-11.439999999998848, 5.720049999999424
-11.429999999998849, 5.715049999999424
-11.419999999998849, 5.710049999999424
-11.409999999998849, 5.705049999999424
-11.39999999999885, 5.7000499999994245
-11.38999999999885, 5.695049999999425
-11.37999999999885, 5.690049999999425
-11.36999999999885, 5.685049999999425
-11.35999999999885, 5.680049999999425
-11.34999999999885, 5.675049999999425
-11.33999999999885, 5.670049999999425
-11.32999999999885, 5.665049999999425
-11.319999999998851, 5.660049999999425
-11.309999999998851, 5.6550499999994255
-11.299999999998851, 5.650049999999426
-11.289999999998852, 5.645049999999426
-11.279999999998852, 5.640049999999426
-11.269999999998852, 5.635049999999426
-11.259999999998852, 5.630049999999426
-11.249999999998852, 5.625049999999426
-11.239999999998853, 5.620049999999426
-11.229999999998853, 5.615049999999426
-11.219999999998853, 5.610049999999426
-11.209999999998853, 5.6050499999994265
-11.199999999998854, 5.600049999999427
-11.189999999998854, 5.595049999999427
-11.179999999998854, 5.590049999999427
-11.169999999998854, 5.585049999999427
-11.159999999998854, 5.580049999999427
-11.149999999998855, 5.575049999999427
-11.139999999998855, 5.570049999999427
-11.129999999998855, 5.565049999999427
-11.119999999998855, 5.5600499999994275
-11.109999999998855, 5.555049999999428
-11.099999999998856, 5.550049999999428
-11.089999999998856, 5.545049999999428
-11.079999999998856, 5.540049999999428
-11.069999999998856, 5.535049999999428
-11.059999999998857, 5.530049999999428
-11.049999999998857, 5.525049999999428
-11.039999999998857, 5.520049999999428
-11.029999999998857, 5.5150499999994285
-11.019999999998857, 5.510049999999429
-11.009999999998858, 5.505049999999429
-10.999999999998858, 5.500049999999429
-10.989999999998858, 5.495049999999429
-10.979999999998858, 5.490049999999429
-10.969999999998858, 5.485049999999429
-10.959999999998859, 5.480049999999429
-10.949999999998859, 5.475049999999429
-10.939999999998859, 5.470049999999429
-10.92999999999886, 5.4650499999994295
-10.91999999999886, 5.46004999999943
-10.90999999999886, 5.45504999999943
-10.89999999999886, 5.45004999999943
-10.88999999999886, 5.44504999999943
-10.87999999999886, 5.44004999999943
-10.86999999999886, 5.43504999999943
-10.85999999999886, 5.43004999999943
-10.849999999998861, 5.42504999999943
-10.839999999998861, 5.4200499999994305
-10.829999999998861, 5.415049999999431
-10.819999999998862, 5.410049999999431
-10.809999999998862, 5.405049999999431
-10.799999999998862, 5.400049999999431
-10.789999999998862, 5.395049999999431
-10.779999999998862, 5.390049999999431
-10.769999999998863, 5.385049999999431
-10.759999999998863, 5.380049999999431
-10.749999999998863, 5.3750499999994314
-10.739999999998863, 5.3700499999994316
-10.729999999998864, 5.365049999999432
-10.719999999998864, 5.360049999999432
-10.709999999998864, 5.355049999999432
-10.699999999998864, 5.350049999999432
-10.689999999998864, 5.345049999999432
-10.679999999998865, 5.340049999999432
-10.669999999998865, 5.335049999999432
-10.659999999998865, 5.330049999999432
-10.649999999998865, 5.3250499999994325
-10.639999999998865, 5.320049999999433
-10.629999999998866, 5.315049999999433
-10.619999999998866, 5.310049999999433
-10.609999999998866, 5.305049999999433
-10.599999999998866, 5.300049999999433
-10.589999999998867, 5.295049999999433
-10.579999999998867, 5.290049999999433
-10.569999999998867, 5.285049999999433
-10.559999999998867, 5.2800499999994335
-10.549999999998867, 5.275049999999434
-10.539999999998868, 5.270049999999434
-10.529999999998868, 5.265049999999434
-10.519999999998868, 5.260049999999434
-10.509999999998868, 5.255049999999434
-10.499999999998868, 5.250049999999434
-10.489999999998869, 5.245049999999434
-10.479999999998869, 5.240049999999434
-10.469999999998869, 5.235049999999434
-10.45999999999887, 5.2300499999994345
-10.44999999999887, 5.225049999999435
-10.43999999999887, 5.220049999999435
-10.42999999999887, 5.215049999999435
-10.41999999999887, 5.210049999999435
-10.40999999999887, 5.205049999999435
-10.39999999999887, 5.200049999999435
-10.38999999999887, 5.195049999999435
-10.379999999998871, 5.190049999999435
-10.369999999998871, 5.1850499999994355
-10.359999999998871, 5.180049999999436
-10.349999999998872, 5.175049999999436
-10.339999999998872, 5.170049999999436
-10.329999999998872, 5.165049999999436
-10.319999999998872, 5.160049999999436
-10.309999999998873, 5.155049999999436
-10.299999999998873, 5.150049999999436
-10.289999999998873, 5.145049999999436
-10.279999999998873, 5.1400499999994365
-10.269999999998873, 5.135049999999437
-10.259999999998874, 5.130049999999437
-10.249999999998874, 5.125049999999437
-10.239999999998874, 5.120049999999437
-10.229999999998874, 5.115049999999437
-10.219999999998874, 5.110049999999437
-10.209999999998875, 5.105049999999437
-10.199999999998875, 5.100049999999437
-10.189999999998875, 5.095049999999437
-10.179999999998875, 5.0900499999994375
-10.169999999998875, 5.085049999999438
-10.159999999998876, 5.080049999999438
-10.149999999998876, 5.075049999999438
-10.139999999998876, 5.070049999999438
-10.129999999998876, 5.065049999999438
-10.119999999998877, 5.060049999999438
-10.109999999998877, 5.055049999999438
-10.099999999998877, 5.050049999999438
-10.089999999998877, 5.0450499999994385
-10.079999999998877, 5.040049999999439
-10.069999999998878, 5.035049999999439
-10.059999999998878, 5.030049999999439
-10.049999999998878, 5.025049999999439
-10.039999999998878, 5.020049999999439
-10.029999999998878, 5.015049999999439
-10.019999999998879, 5.010049999999439
-10.009999999998879, 5.005049999999439
-9.99999999999888, 5.000049999999439
-9.98999999999888, 4.9950499999994395
-9.97999999999888, 4.99004999999944
-9.96999999999888, 4.98504999999944
-9.95999999999888, 4.98004999999944
-9.94999999999888, 4.97504999999944
-9.93999999999888, 4.97004999999944
-9.92999999999888, 4.96504999999944
-9.91999999999888, 4.96004999999944
-9.909999999998881, 4.95504999999944
-9.899999999998881, 4.9500499999994405
-9.889999999998881, 4.945049999999441
-9.879999999998882, 4.940049999999441
-9.869999999998882, 4.935049999999441
-9.859999999998882, 4.930049999999441
-9.849999999998882, 4.925049999999441
-9.839999999998883, 4.920049999999441
-9.829999999998883, 4.915049999999441
-9.819999999998883, 4.910049999999441
-9.809999999998883, 4.9050499999994415
-9.799999999998883, 4.900049999999442
-9.789999999998884, 4.895049999999442
-9.779999999998884, 4.890049999999442
-9.769999999998884, 4.885049999999442
-9.759999999998884, 4.880049999999442
-9.749999999998884, 4.875049999999442
-9.739999999998885, 4.870049999999442
-9.729999999998885, 4.865049999999442
-9.719999999998885, 4.860049999999442
-9.709999999998885, 4.8550499999994425
-9.699999999998886, 4.850049999999443
-9.689999999998886, 4.845049999999443
-9.679999999998886, 4.840049999999443
-9.669999999998886, 4.835049999999443
-9.659999999998886, 4.830049999999443
-9.649999999998887, 4.825049999999443
-9.639999999998887, 4.820049999999443
-9.629999999998887, 4.815049999999443
-9.619999999998887, 4.8100499999994435
-9.609999999998887, 4.805049999999444
-9.599999999998888, 4.800049999999444
-9.589999999998888, 4.795049999999444
-9.579999999998888, 4.790049999999444
-9.569999999998888, 4.785049999999444
-9.559999999998888, 4.780049999999444
-9.549999999998889, 4.775049999999444
-9.539999999998889, 4.770049999999444
-9.52999999999889, 4.7650499999994445
-9.51999999999889, 4.760049999999445
-9.50999999999889, 4.755049999999445
-9.49999999999889, 4.750049999999445
-9.48999999999889, 4.745049999999445
-9.47999999999889, 4.740049999999445
-9.46999999999889, 4.735049999999445
-9.45999999999889, 4.730049999999445
-9.44999999999889, 4.725049999999445
-9.439999999998891, 4.720049999999445
-9.429999999998891, 4.7150499999994455
-9.419999999998891, 4.710049999999446
-9.409999999998892, 4.705049999999446
-9.399999999998892, 4.700049999999446
-9.389999999998892, 4.695049999999446
-9.379999999998892, 4.690049999999446
-9.369999999998893, 4.685049999999446
-9.359999999998893, 4.680049999999446
-9.349999999998893, 4.675049999999446
-9.339999999998893, 4.6700499999994465
-9.329999999998893, 4.665049999999447
-9.319999999998894, 4.660049999999447
-9.309999999998894, 4.655049999999447
-9.299999999998894, 4.650049999999447
-9.289999999998894, 4.645049999999447
-9.279999999998894, 4.640049999999447
-9.269999999998895, 4.635049999999447
-9.259999999998895, 4.630049999999447
-9.249999999998895, 4.625049999999447
-9.239999999998895, 4.6200499999994475
-9.229999999998896, 4.615049999999448
-9.219999999998896, 4.610049999999448
-9.209999999998896, 4.605049999999448
-9.199999999998896, 4.600049999999448
-9.189999999998896, 4.595049999999448
-9.179999999998897, 4.590049999999448
-9.169999999998897, 4.585049999999448
-9.159999999998897, 4.580049999999448
-9.149999999998897, 4.5750499999994485
-9.139999999998897, 4.570049999999449
-9.129999999998898, 4.565049999999449
-9.119999999998898, 4.560049999999449
-9.109999999998898, 4.555049999999449
-9.099999999998898, 4.550049999999449
-9.089999999998899, 4.545049999999449
-9.079999999998899, 4.540049999999449
-9.069999999998899, 4.535049999999449
-9.0599999999989, 4.5300499999994495
-9.0499999999989, 4.52504999999945
-9.0399999999989, 4.52004999999945
-9.0299999999989, 4.51504999999945
-9.0199999999989, 4.51004999999945
-9.0099999999989, 4.50504999999945
-8.9999999999989, 4.50004999999945
-8.9899999999989, 4.49504999999945
-8.9799999999989, 4.49004999999945
-8.969999999998901, 4.48504999999945
-8.959999999998901, 4.4800499999994505
-8.949999999998902, 4.475049999999451
-8.939999999998902, 4.470049999999451
-8.929999999998902, 4.465049999999451
-8.919999999998902, 4.460049999999451
-8.909999999998902, 4.455049999999451
-8.899999999998903, 4.450049999999451
-8.889999999998903, 4.445049999999451
-8.879999999998903, 4.440049999999451
-8.869999999998903, 4.4350499999994515
-8.859999999998903, 4.430049999999452
-8.849999999998904, 4.425049999999452
-8.839999999998904, 4.420049999999452
-8.829999999998904, 4.415049999999452
-8.819999999998904, 4.410049999999452
-8.809999999998904, 4.405049999999452
-8.799999999998905, 4.400049999999452
-8.789999999998905, 4.395049999999452
-8.779999999998905, 4.3900499999994524
-8.769999999998905, 4.3850499999994526
-8.759999999998906, 4.380049999999453
-8.749999999998906, 4.375049999999453
-8.739999999998906, 4.370049999999453
-8.729999999998906, 4.365049999999453
-8.719999999998906, 4.360049999999453
-8.709999999998907, 4.355049999999453
-8.699999999998907, 4.350049999999453
-8.689999999998907, 4.345049999999453
-8.679999999998907, 4.3400499999994535
-8.669999999998907, 4.335049999999454
-8.659999999998908, 4.330049999999454
-8.649999999998908, 4.325049999999454
-8.639999999998908, 4.320049999999454
-8.629999999998908, 4.315049999999454
-8.619999999998909, 4.310049999999454
-8.609999999998909, 4.305049999999454
-8.599999999998909, 4.300049999999454
-8.58999999999891, 4.2950499999994545
-8.57999999999891, 4.290049999999455
-8.56999999999891, 4.285049999999455
-8.55999999999891, 4.280049999999455
-8.54999999999891, 4.275049999999455
-8.53999999999891, 4.270049999999455
-8.52999999999891, 4.265049999999455
-8.51999999999891, 4.260049999999455
-8.50999999999891, 4.255049999999455
-8.499999999998911, 4.250049999999455
-8.489999999998911, 4.2450499999994555
-8.479999999998912, 4.240049999999456
-8.469999999998912, 4.235049999999456
-8.459999999998912, 4.230049999999456
-8.449999999998912, 4.225049999999456
-8.439999999998912, 4.220049999999456
-8.429999999998913, 4.215049999999456
-8.419999999998913, 4.210049999999456
-8.409999999998913, 4.205049999999456
-8.399999999998913, 4.2000499999994565
-8.389999999998913, 4.195049999999457
-8.379999999998914, 4.190049999999457
-8.369999999998914, 4.185049999999457
-8.359999999998914, 4.180049999999457
-8.349999999998914, 4.175049999999457
-8.339999999998915, 4.170049999999457
-8.329999999998915, 4.165049999999457
-8.319999999998915, 4.160049999999457
-8.309999999998915, 4.1550499999994575
-8.299999999998915, 4.150049999999458
-8.289999999998916, 4.145049999999458
-8.279999999998916, 4.140049999999458
-8.269999999998916, 4.135049999999458
-8.259999999998916, 4.130049999999458
-8.249999999998916, 4.125049999999458
-8.239999999998917, 4.120049999999458
-8.229999999998917, 4.115049999999458
-8.219999999998917, 4.110049999999458
-8.209999999998917, 4.1050499999994585
-8.199999999998917, 4.100049999999459
-8.189999999998918, 4.095049999999459
-8.179999999998918, 4.090049999999459
-8.169999999998918, 4.085049999999459
-8.159999999998918, 4.080049999999459
-8.149999999998919, 4.075049999999459
-8.139999999998919, 4.070049999999459
-8.129999999998919, 4.065049999999459
-8.11999999999892, 4.0600499999994595
-8.10999999999892, 4.05504999999946
-8.09999999999892, 4.05004999999946
-8.08999999999892, 4.04504999999946
-8.07999999999892, 4.04004999999946
-8.06999999999892, 4.03504999999946
-8.05999999999892, 4.03004999999946
-8.04999999999892, 4.02504999999946
-8.039999999998921, 4.02004999999946
-8.029999999998921, 4.01504999999946
-8.019999999998921, 4.0100499999994605
-8.009999999998922, 4.005049999999461
-7.999999999998922, 4.000049999999461
-7.989999999998922, 3.995049999999461
-7.979999999998922, 3.990049999999461
-7.969999999998922, 3.985049999999461
-7.959999999998923, 3.980049999999461
-7.949999999998923, 3.9750499999994613
-7.939999999998923, 3.9700499999994614
-7.929999999998923, 3.9650499999994615
-7.9199999999989235, 3.9600499999994616
-7.909999999998924, 3.9550499999994617
-7.899999999998924, 3.950049999999462
-7.889999999998924, 3.945049999999462
-7.879999999998924, 3.940049999999462
-7.8699999999989245, 3.935049999999462
-7.859999999998925, 3.9300499999994623
-7.849999999998925, 3.9250499999994624
-7.839999999998925, 3.9200499999994625
-7.829999999998925, 3.9150499999994626
-7.819999999998926, 3.9100499999994627
-7.809999999998926, 3.905049999999463
-7.799999999998926, 3.900049999999463
-7.789999999998926, 3.895049999999463
-7.779999999998926, 3.890049999999463
-7.769999999998927, 3.885049999999463
-7.759999999998927, 3.8800499999994633
-7.749999999998927, 3.8750499999994634
-7.739999999998927, 3.8700499999994635
-7.7299999999989275, 3.8650499999994636
-7.719999999998928, 3.8600499999994637
-7.709999999998928, 3.855049999999464
-7.699999999998928, 3.850049999999464
-7.689999999998928, 3.845049999999464
-7.679999999998929, 3.840049999999464
-7.669999999998929, 3.8350499999994643
-7.659999999998929, 3.8300499999994644
-7.649999999998929, 3.8250499999994645
-7.639999999998929, 3.8200499999994646
-7.62999999999893, 3.8150499999994647
-7.61999999999893, 3.810049999999465
-7.60999999999893, 3.805049999999465
-7.59999999999893, 3.800049999999465
-7.5899999999989305, 3.795049999999465
-7.579999999998931, 3.7900499999994652
-7.569999999998931, 3.7850499999994653
-7.559999999998931, 3.7800499999994654
-7.549999999998931, 3.7750499999994656
-7.539999999998932, 3.7700499999994657
-7.529999999998932, 3.7650499999994658
-7.519999999998932, 3.760049999999466
-7.509999999998932, 3.755049999999466
-7.499999999998932, 3.750049999999466
-7.489999999998933, 3.745049999999466
-7.479999999998933, 3.7400499999994663
-7.469999999998933, 3.7350499999994664
-7.459999999998933, 3.7300499999994665
-7.4499999999989335, 3.7250499999994666
-7.439999999998934, 3.7200499999994667
-7.429999999998934, 3.715049999999467
-7.419999999998934, 3.710049999999467
-7.409999999998934, 3.705049999999467
-7.3999999999989345, 3.700049999999467
-7.389999999998935, 3.6950499999994673
-7.379999999998935, 3.6900499999994674
-7.369999999998935, 3.6850499999994675
-7.359999999998935, 3.6800499999994676
-7.349999999998936, 3.6750499999994677
-7.339999999998936, 3.670049999999468
-7.329999999998936, 3.665049999999468
-7.319999999998936, 3.660049999999468
-7.3099999999989365, 3.655049999999468
-7.299999999998937, 3.650049999999468
-7.289999999998937, 3.6450499999994683
-7.279999999998937, 3.6400499999994684
-7.269999999998937, 3.6350499999994685
-7.2599999999989375, 3.6300499999994686
-7.249999999998938, 3.6250499999994688
-7.239999999998938, 3.620049999999469
-7.229999999998938, 3.615049999999469
-7.219999999998938, 3.610049999999469
-7.209999999998939, 3.605049999999469
-7.199999999998939, 3.6000499999994693
-7.189999999998939, 3.5950499999994694
-7.179999999998939, 3.5900499999994695
-7.169999999998939, 3.5850499999994696
-7.15999999999894, 3.5800499999994697
-7.14999999999894, 3.57504999999947
-7.13999999999894, 3.57004999999947
-7.12999999999894, 3.56504999999947
-7.1199999999989405, 3.56004999999947
-7.109999999998941, 3.5550499999994702
-7.099999999998941, 3.5500499999994704
-7.089999999998941, 3.5450499999994705
-7.079999999998941, 3.5400499999994706
-7.069999999998942, 3.5350499999994707
-7.059999999998942, 3.5300499999994708
-7.049999999998942, 3.525049999999471
-7.039999999998942, 3.520049999999471
-7.029999999998942, 3.515049999999471
-7.019999999998943, 3.510049999999471
-7.009999999998943, 3.5050499999994713
-6.999999999998943, 3.5000499999994714
-6.989999999998943, 3.4950499999994715
-6.9799999999989435, 3.4900499999994716
-6.969999999998944, 3.4850499999994717
-6.959999999998944, 3.480049999999472
-6.949999999998944, 3.475049999999472
-6.939999999998944, 3.470049999999472
-6.929999999998945, 3.465049999999472
-6.919999999998945, 3.4600499999994723
-6.909999999998945, 3.4550499999994724
-6.899999999998945, 3.4500499999994725
-6.889999999998945, 3.4450499999994726
-6.879999999998946, 3.4400499999994727
-6.869999999998946, 3.435049999999473
-6.859999999998946, 3.430049999999473
-6.849999999998946, 3.425049999999473
-6.8399999999989465, 3.420049999999473
-6.829999999998947, 3.4150499999994732
-6.819999999998947, 3.4100499999994733
-6.809999999998947, 3.4050499999994734
-6.799999999998947, 3.4000499999994735
-6.7899999999989475, 3.3950499999994737
-6.779999999998948, 3.3900499999994738
-6.769999999998948, 3.385049999999474
-6.759999999998948, 3.380049999999474
-6.749999999998948, 3.375049999999474
-6.739999999998949, 3.370049999999474
-6.729999999998949, 3.3650499999994743
-6.719999999998949, 3.3600499999994744
-6.709999999998949, 3.3550499999994745
-6.6999999999989495, 3.3500499999994746
-6.68999999999895, 3.3450499999994747
-6.67999999999895, 3.340049999999475
-6.66999999999895, 3.335049999999475
-6.65999999999895, 3.330049999999475
-6.6499999999989505, 3.325049999999475
-6.639999999998951, 3.3200499999994753
-6.629999999998951, 3.3150499999994754
-6.619999999998951, 3.3100499999994755
-6.609999999998951, 3.3050499999994756
-6.599999999998952, 3.3000499999994757
-6.589999999998952, 3.295049999999476
-6.579999999998952, 3.290049999999476
-6.569999999998952, 3.285049999999476
-6.5599999999989524, 3.280049999999476
-6.549999999998953, 3.275049999999476
-6.539999999998953, 3.2700499999994763
-6.529999999998953, 3.2650499999994764
-6.519999999998953, 3.2600499999994765
-6.5099999999989535, 3.2550499999994766
-6.499999999998954, 3.2500499999994767
-6.489999999998954, 3.245049999999477
-6.479999999998954, 3.240049999999477
-6.469999999998954, 3.235049999999477
-6.459999999998955, 3.230049999999477
-6.449999999998955, 3.2250499999994773
-6.439999999998955, 3.2200499999994774
-6.429999999998955, 3.2150499999994775
-6.419999999998955, 3.2100499999994776
-6.409999999998956, 3.2050499999994777
-6.399999999998956, 3.200049999999478
-6.389999999998956, 3.195049999999478
-6.379999999998956, 3.190049999999478
-6.3699999999989565, 3.185049999999478
-6.359999999998957, 3.1800499999994782
-6.349999999998957, 3.1750499999994783
-6.339999999998957, 3.1700499999994785
-6.329999999998957, 3.1650499999994786
-6.319999999998958, 3.1600499999994787
-6.309999999998958, 3.1550499999994788
-6.299999999998958, 3.150049999999479
-6.289999999998958, 3.145049999999479
-6.279999999998958, 3.140049999999479
-6.269999999998959, 3.135049999999479
-6.259999999998959, 3.1300499999994793
-6.249999999998959, 3.1250499999994794
-6.239999999998959, 3.1200499999994795
-6.2299999999989595, 3.1150499999994796
-6.21999999999896, 3.1100499999994797
-6.20999999999896, 3.10504999999948
-6.19999999999896, 3.10004999999948
-6.18999999999896, 3.09504999999948
-6.1799999999989605, 3.09004999999948
-6.169999999998961, 3.0850499999994803
-6.159999999998961, 3.0800499999994804
-6.149999999998961, 3.0750499999994805
-6.139999999998961, 3.0700499999994806
-6.129999999998962, 3.0650499999994807
-6.119999999998962, 3.060049999999481
-6.109999999998962, 3.055049999999481
-6.099999999998962, 3.050049999999481
-6.0899999999989625, 3.045049999999481
-6.079999999998963, 3.0400499999994812
-6.069999999998963, 3.0350499999994813
-6.059999999998963, 3.0300499999994814
-6.049999999998963, 3.0250499999994815
-6.0399999999989635, 3.0200499999994816
-6.029999999998964, 3.0150499999994818
-6.019999999998964, 3.010049999999482
-6.009999999998964, 3.005049999999482
-5.999999999998964, 3.000049999999482
-5.989999999998965, 2.995049999999482
-5.979999999998965, 2.9900499999994823
-5.969999999998965, 2.9850499999994824
-5.959999999998965, 2.9800499999994825
-5.9499999999989654, 2.9750499999994826
-5.939999999998966, 2.9700499999994827
-5.929999999998966, 2.965049999999483
-5.919999999998966, 2.960049999999483
-5.909999999998966, 2.955049999999483
-5.8999999999989665, 2.950049999999483
-5.889999999998967, 2.9450499999994832
-5.879999999998967, 2.9400499999994834
-5.869999999998967, 2.9350499999994835
-5.859999999998967, 2.9300499999994836
-5.849999999998968, 2.9250499999994837
-5.839999999998968, 2.920049999999484
-5.829999999998968, 2.915049999999484
-5.819999999998968, 2.910049999999484
-5.809999999998968, 2.905049999999484
-5.799999999998969, 2.900049999999484
-5.789999999998969, 2.8950499999994843
-5.779999999998969, 2.8900499999994844
-5.769999999998969, 2.8850499999994845
-5.7599999999989695, 2.8800499999994846
-5.74999999999897, 2.8750499999994847
-5.73999999999897, 2.870049999999485
-5.72999999999897, 2.865049999999485
-5.71999999999897, 2.860049999999485
-5.709999999998971, 2.855049999999485
-5.699999999998971, 2.8500499999994853
-5.689999999998971, 2.8450499999994854
-5.679999999998971, 2.8400499999994855
-5.669999999998971, 2.8350499999994856
-5.659999999998972, 2.8300499999994857
-5.649999999998972, 2.825049999999486
-5.639999999998972, 2.820049999999486
-5.629999999998972, 2.815049999999486
-5.6199999999989725, 2.810049999999486
-5.609999999998973, 2.8050499999994862
-5.599999999998973, 2.8000499999994863
-5.589999999998973, 2.7950499999994864
-5.579999999998973, 2.7900499999994866
-5.5699999999989735, 2.7850499999994867
-5.559999999998974, 2.7800499999994868
-5.549999999998974, 2.775049999999487
-5.539999999998974, 2.770049999999487
-5.529999999998974, 2.765049999999487
-5.519999999998975, 2.760049999999487
-5.509999999998975, 2.7550499999994873
-5.499999999998975, 2.7500499999994874
-5.489999999998975, 2.7450499999994875
-5.4799999999989755, 2.7400499999994876
-5.469999999998976, 2.7350499999994877
-5.459999999998976, 2.730049999999488
-5.449999999998976, 2.725049999999488
-5.439999999998976, 2.720049999999488
-5.4299999999989765, 2.715049999999488
-5.419999999998977, 2.7100499999994883
-5.409999999998977, 2.7050499999994884
-5.399999999998977, 2.7000499999994885
-5.389999999998977, 2.6950499999994886
-5.379999999998978, 2.6900499999994887
-5.369999999998978, 2.685049999999489
-5.359999999998978, 2.680049999999489
-5.349999999998978, 2.675049999999489
-5.3399999999989785, 2.670049999999489
-5.329999999998979, 2.665049999999489
-5.319999999998979, 2.6600499999994893
-5.309999999998979, 2.6550499999994894
-5.299999999998979, 2.6500499999994895
-5.2899999999989795, 2.6450499999994896
-5.27999999999898, 2.6400499999994897
-5.26999999999898, 2.63504999999949
-5.25999999999898, 2.63004999999949
-5.24999999999898, 2.62504999999949
-5.239999999998981, 2.62004999999949
-5.229999999998981, 2.6150499999994903
-5.219999999998981, 2.6100499999994904
-5.209999999998981, 2.6050499999994905
-5.199999999998981, 2.6000499999994906
-5.189999999998982, 2.5950499999994907
-5.179999999998982, 2.590049999999491
-5.169999999998982, 2.585049999999491
-5.159999999998982, 2.580049999999491
-5.1499999999989825, 2.575049999999491
-5.139999999998983, 2.5700499999994912
-5.129999999998983, 2.5650499999994913
-5.119999999998983, 2.5600499999994915
-5.109999999998983, 2.5550499999994916
-5.099999999998984, 2.5500499999994917
-5.089999999998984, 2.5450499999994918
-5.079999999998984, 2.540049999999492
-5.069999999998984, 2.535049999999492
-5.059999999998984, 2.530049999999492
-5.049999999998985, 2.525049999999492
-5.039999999998985, 2.5200499999994923
-5.029999999998985, 2.5150499999994924
-5.019999999998985, 2.5100499999994925
-5.0099999999989855, 2.5050499999994926
-4.999999999998986, 2.5000499999994927
-4.989999999998986, 2.495049999999493
-4.979999999998986, 2.490049999999493
-4.969999999998986, 2.485049999999493
-4.9599999999989866, 2.480049999999493
-4.949999999998987, 2.4750499999994933
-4.939999999998987, 2.4700499999994934
-4.929999999998987, 2.4650499999994935
-4.919999999998987, 2.4600499999994936
-4.909999999998988, 2.4550499999994937
-4.899999999998988, 2.450049999999494
-4.889999999998988, 2.445049999999494
-4.879999999998988, 2.440049999999494
-4.8699999999989885, 2.435049999999494
-4.859999999998989, 2.4300499999994942
-4.849999999998989, 2.4250499999994943
-4.839999999998989, 2.4200499999994944
-4.829999999998989, 2.4150499999994945
-4.8199999999989895, 2.4100499999994947
-4.80999999999899, 2.4050499999994948
-4.79999999999899, 2.400049999999495
-4.78999999999899, 2.395049999999495
-4.77999999999899, 2.390049999999495
-4.769999999998991, 2.385049999999495
-4.759999999998991, 2.3800499999994953
-4.749999999998991, 2.3750499999994954
-4.739999999998991, 2.3700499999994955
-4.7299999999989915, 2.3650499999994956
-4.719999999998992, 2.3600499999994957
-4.709999999998992, 2.355049999999496
-4.699999999998992, 2.350049999999496
-4.689999999998992, 2.345049999999496
-4.6799999999989925, 2.340049999999496
-4.669999999998993, 2.3350499999994963
-4.659999999998993, 2.3300499999994964
-4.649999999998993, 2.3250499999994965
-4.639999999998993, 2.3200499999994966
-4.629999999998994, 2.3150499999994967
-4.619999999998994, 2.310049999999497
-4.609999999998994, 2.305049999999497
-4.599999999998994, 2.300049999999497
-4.589999999998994, 2.295049999999497
-4.579999999998995, 2.290049999999497
-4.569999999998995, 2.2850499999994973
-4.559999999998995, 2.2800499999994974
-4.549999999998995, 2.2750499999994975
-4.5399999999989955, 2.2700499999994976
-4.529999999998996, 2.2650499999994977
-4.519999999998996, 2.260049999999498
-4.509999999998996, 2.255049999999498
-4.499999999998996, 2.250049999999498
-4.489999999998997, 2.245049999999498
-4.479999999998997, 2.2400499999994983
-4.469999999998997, 2.2350499999994984
-4.459999999998997, 2.2300499999994985
-4.449999999998997, 2.2250499999994986
-4.439999999998998, 2.2200499999994987
-4.429999999998998, 2.215049999999499
-4.419999999998998, 2.210049999999499
-4.409999999998998, 2.205049999999499
-4.3999999999989985, 2.200049999999499
-4.389999999998999, 2.1950499999994992
-4.379999999998999, 2.1900499999994993
-4.369999999998999, 2.1850499999994994
-4.359999999998999, 2.1800499999994996
-4.3499999999989996, 2.1750499999994997
-4.339999999999, 2.1700499999994998
-4.329999999999, 2.1650499999995
-4.319999999999, 2.1600499999995
-4.309999999999, 2.1550499999995
-4.299999999999001, 2.1500499999995
-4.289999999999001, 2.1450499999995003
-4.279999999999001, 2.1400499999995004
-4.269999999999001, 2.1350499999995005
-4.2599999999990015, 2.1300499999995006
-4.249999999999002, 2.1250499999995007
-4.239999999999002, 2.120049999999501
-4.229999999999002, 2.115049999999501
-4.219999999999002, 2.110049999999501
-4.2099999999990025, 2.105049999999501
-4.199999999999003, 2.1000499999995013
-4.189999999999003, 2.0950499999995014
-4.179999999999003, 2.0900499999995015
-4.169999999999003, 2.0850499999995016
-4.159999999999004, 2.0800499999995017
-4.149999999999004, 2.075049999999502
-4.139999999999004, 2.070049999999502
-4.129999999999004, 2.065049999999502
-4.1199999999990045, 2.060049999999502
-4.109999999999005, 2.055049999999502
-4.099999999999005, 2.0500499999995023
-4.089999999999005, 2.0450499999995024
-4.079999999999005, 2.0400499999995025
-4.0699999999990055, 2.0350499999995026
-4.059999999999006, 2.0300499999995028
-4.049999999999006, 2.025049999999503
-4.039999999999006, 2.020049999999503
-4.029999999999006, 2.015049999999503
-4.019999999999007, 2.010049999999503
-4.009999999999007, 2.0050499999995033
-3.999999999999007, 2.0000499999995034
-3.9899999999990072, 1.9950499999995037
-3.9799999999990074, 1.9900499999995038
-3.9699999999990077, 1.985049999999504
-3.959999999999008, 1.980049999999504
-3.949999999999008, 1.9750499999995041
-3.9399999999990083, 1.9700499999995043
-3.9299999999990085, 1.9650499999995044
-3.9199999999990087, 1.9600499999995045
-3.909999999999009, 1.9550499999995046
-3.899999999999009, 1.9500499999995047
-3.8899999999990094, 1.9450499999995048
-3.8799999999990096, 1.940049999999505
-3.86999999999901, 1.935049999999505
-3.85999999999901, 1.930049999999505
-3.84999999999901, 1.9250499999995052
-3.8399999999990104, 1.9200499999995053
-3.8299999999990106, 1.9150499999995054
-3.819999999999011, 1.9100499999995055
-3.809999999999011, 1.9050499999995056
-3.7999999999990113, 1.9000499999995057
-3.7899999999990115, 1.8950499999995059
-3.7799999999990117, 1.890049999999506
-3.769999999999012, 1.885049999999506
-3.759999999999012, 1.8800499999995062
-3.7499999999990123, 1.8750499999995063
-3.7399999999990126, 1.8700499999995064
-3.7299999999990128, 1.8650499999995065
-3.719999999999013, 1.8600499999995066
-3.709999999999013, 1.8550499999995067
-3.6999999999990134, 1.8500499999995068
-3.6899999999990136, 1.845049999999507
-3.679999999999014, 1.840049999999507
-3.669999999999014, 1.8350499999995071
-3.6599999999990143, 1.8300499999995072
-3.6499999999990145, 1.8250499999995073
-3.6399999999990147, 1.8200499999995075
-3.629999999999015, 1.8150499999995076
-3.619999999999015, 1.8100499999995077
-3.6099999999990153, 1.8050499999995078
-3.5999999999990155, 1.8000499999995079
-3.5899999999990158, 1.795049999999508
-3.579999999999016, 1.790049999999508
-3.569999999999016, 1.7850499999995082
-3.5599999999990164, 1.7800499999995083
-3.5499999999990166, 1.7750499999995084
-3.539999999999017, 1.7700499999995085
-3.529999999999017, 1.7650499999995086
-3.5199999999990172, 1.7600499999995087
-3.5099999999990175, 1.7550499999995088
-3.4999999999990177, 1.750049999999509
-3.489999999999018, 1.745049999999509
-3.479999999999018, 1.7400499999995092
-3.4699999999990183, 1.7350499999995093
-3.4599999999990185, 1.7300499999995094
-3.4499999999990187, 1.7250499999995095
-3.439999999999019, 1.7200499999995096
-3.429999999999019, 1.7150499999995097
-3.4199999999990194, 1.7100499999995098
-3.4099999999990196, 1.70504999999951
-3.39999999999902, 1.70004999999951
-3.38999999999902, 1.6950499999995101
-3.3799999999990202, 1.6900499999995102
-3.3699999999990204, 1.6850499999995103
-3.3599999999990207, 1.6800499999995104
-3.349999999999021, 1.6750499999995105
-3.339999999999021, 1.6700499999995106
-3.3299999999990213, 1.6650499999995108
-3.3199999999990215, 1.6600499999995109
-3.3099999999990217, 1.655049999999511
-3.299999999999022, 1.650049999999511
-3.289999999999022, 1.6450499999995112
-3.2799999999990224, 1.6400499999995113
-3.2699999999990226, 1.6350499999995114
-3.259999999999023, 1.6300499999995115
-3.249999999999023, 1.6250499999995116
-3.239999999999023, 1.6200499999995117
-3.2299999999990234, 1.6150499999995118
-3.2199999999990236, 1.610049999999512
-3.209999999999024, 1.605049999999512
-3.199999999999024, 1.6000499999995121
-3.1899999999990243, 1.5950499999995122
-3.1799999999990245, 1.5900499999995124
-3.1699999999990247, 1.5850499999995125
-3.159999999999025, 1.5800499999995126
-3.149999999999025, 1.5750499999995127
-3.1399999999990253, 1.5700499999995128
-3.1299999999990256, 1.5650499999995129
-3.1199999999990258, 1.560049999999513
-3.109999999999026, 1.555049999999513
-3.099999999999026, 1.5500499999995132
-3.0899999999990264, 1.5450499999995133
-3.0799999999990266, 1.5400499999995134
-3.069999999999027, 1.5350499999995135
-3.059999999999027, 1.5300499999995136
-3.0499999999990273, 1.5250499999995137
-3.0399999999990275, 1.5200499999995138
-3.0299999999990277, 1.515049999999514
-3.019999999999028, 1.510049999999514
-3.009999999999028, 1.5050499999995142
-2.9999999999990283, 1.5000499999995143
-2.9899999999990285, 1.4950499999995144
-2.9799999999990288, 1.4900499999995145
-2.969999999999029, 1.4850499999995146
-2.959999999999029, 1.4800499999995147
-2.9499999999990294, 1.4750499999995148
-2.9399999999990296, 1.470049999999515
-2.92999999999903, 1.465049999999515
-2.91999999999903, 1.4600499999995151
-2.9099999999990303, 1.4550499999995152
-2.8999999999990305, 1.4500499999995153
-2.8899999999990307, 1.4450499999995154
-2.879999999999031, 1.4400499999995156
-2.869999999999031, 1.4350499999995157
-2.8599999999990313, 1.4300499999995158
-2.8499999999990315, 1.4250499999995159
-2.8399999999990317, 1.420049999999516
-2.829999999999032, 1.415049999999516
-2.819999999999032, 1.4100499999995162
-2.8099999999990324, 1.4050499999995163
-2.7999999999990326, 1.4000499999995164
-2.789999999999033, 1.3950499999995165
-2.779999999999033, 1.3900499999995166
-2.7699999999990332, 1.3850499999995167
-2.7599999999990334, 1.3800499999995168
-2.7499999999990337, 1.375049999999517
-2.739999999999034, 1.370049999999517
-2.729999999999034, 1.3650499999995171
-2.7199999999990343, 1.3600499999995173
-2.7099999999990345, 1.3550499999995174
-2.6999999999990347, 1.3500499999995175
-2.689999999999035, 1.3450499999995176
-2.679999999999035, 1.3400499999995177
-2.6699999999990354, 1.3350499999995178
-2.6599999999990356, 1.330049999999518
-2.649999999999036, 1.325049999999518
-2.639999999999036, 1.320049999999518
-2.629999999999036, 1.3150499999995182
-2.6199999999990364, 1.3100499999995183
-2.6099999999990366, 1.3050499999995184
-2.599999999999037, 1.3000499999995185
-2.589999999999037, 1.2950499999995186
-2.5799999999990373, 1.2900499999995187
-2.5699999999990375, 1.2850499999995189
-2.5599999999990377, 1.280049999999519
-2.549999999999038, 1.275049999999519
-2.539999999999038, 1.2700499999995192
-2.5299999999990384, 1.2650499999995193
-2.5199999999990386, 1.2600499999995194
-2.5099999999990388, 1.2550499999995195
-2.499999999999039, 1.2500499999995196
-2.489999999999039, 1.2450499999995197
-2.4799999999990394, 1.2400499999995198
-2.4699999999990396, 1.23504999999952
-2.45999999999904, 1.23004999999952
-2.44999999999904, 1.2250499999995201
-2.4399999999990403, 1.2200499999995202
-2.4299999999990405, 1.2150499999995203
-2.4199999999990407, 1.2100499999995205
-2.409999999999041, 1.2050499999995206
-2.399999999999041, 1.2000499999995207
-2.3899999999990413, 1.1950499999995208
-2.3799999999990415, 1.1900499999995209
-2.3699999999990418, 1.185049999999521
-2.359999999999042, 1.180049999999521
-2.349999999999042, 1.1750499999995212
-2.3399999999990424, 1.1700499999995213
-2.3299999999990426, 1.1650499999995214
-2.319999999999043, 1.1600499999995215
-2.309999999999043, 1.1550499999995216
-2.2999999999990433, 1.1500499999995217
-2.2899999999990435, 1.1450499999995218
-2.2799999999990437, 1.140049999999522
-2.269999999999044, 1.135049999999522
-2.259999999999044, 1.1300499999995222
-2.2499999999990443, 1.1250499999995223
-2.2399999999990445, 1.1200499999995224
-2.2299999999990447, 1.1150499999995225
-2.219999999999045, 1.1100499999995226
-2.209999999999045, 1.1050499999995227
-2.1999999999990454, 1.1000499999995228
-2.1899999999990456, 1.095049999999523
-2.179999999999046, 1.090049999999523
-2.169999999999046, 1.0850499999995231
-2.1599999999990462, 1.0800499999995232
-2.1499999999990465, 1.0750499999995233
-2.1399999999990467, 1.0700499999995234
-2.129999999999047, 1.0650499999995235
-2.119999999999047, 1.0600499999995237
-2.1099999999990473, 1.0550499999995238
-2.0999999999990475, 1.0500499999995239
-2.0899999999990477, 1.045049999999524
-2.079999999999048, 1.040049999999524
-2.069999999999048, 1.0350499999995242
-2.0599999999990484, 1.0300499999995243
-2.0499999999990486, 1.0250499999995244
-2.039999999999049, 1.0200499999995245
-2.029999999999049, 1.0150499999995246
-2.0199999999990492, 1.0100499999995247
-2.0099999999990494, 1.0050499999995248
-1.9999999999990494, 1.0000499999995247
-1.9899999999990494, 0.9950499999995247
-1.9799999999990494, 0.9900499999995247
-1.9699999999990494, 0.9850499999995247
-1.9599999999990494, 0.9800499999995247
-1.9499999999990494, 0.9750499999995247
-1.9399999999990494, 0.9700499999995247
-1.9299999999990494, 0.9650499999995247
-1.9199999999990494, 0.9600499999995247
-1.9099999999990493, 0.9550499999995247
-1.8999999999990493, 0.9500499999995247
-1.8899999999990493, 0.9450499999995247
-1.8799999999990493, 0.9400499999995247
-1.8699999999990493, 0.9350499999995247
-1.8599999999990493, 0.9300499999995246
-1.8499999999990493, 0.9250499999995246
-1.8399999999990493, 0.9200499999995246
-1.8299999999990493, 0.9150499999995246
-1.8199999999990493, 0.9100499999995246
-1.8099999999990493, 0.9050499999995246
-1.7999999999990492, 0.9000499999995246
-1.7899999999990492, 0.8950499999995246
-1.7799999999990492, 0.8900499999995246
-1.7699999999990492, 0.8850499999995246
-1.7599999999990492, 0.8800499999995246
-1.7499999999990492, 0.8750499999995246
-1.7399999999990492, 0.8700499999995246
-1.7299999999990492, 0.8650499999995246
-1.7199999999990492, 0.8600499999995246
-1.7099999999990492, 0.8550499999995246
-1.6999999999990492, 0.8500499999995246
-1.6899999999990492, 0.8450499999995246
-1.6799999999990491, 0.8400499999995246
-1.6699999999990491, 0.8350499999995246
-1.6599999999990491, 0.8300499999995246
-1.6499999999990491, 0.8250499999995246
-1.639999999999049, 0.8200499999995245
-1.629999999999049, 0.8150499999995245
-1.619999999999049, 0.8100499999995245
-1.609999999999049, 0.8050499999995245
-1.599999999999049, 0.8000499999995245
-1.589999999999049, 0.7950499999995245
-1.579999999999049, 0.7900499999995245
-1.569999999999049, 0.7850499999995245
-1.559999999999049, 0.7800499999995245
-1.549999999999049, 0.7750499999995245
-1.539999999999049, 0.7700499999995245
-1.529999999999049, 0.7650499999995245
-1.519999999999049, 0.7600499999995245
-1.509999999999049, 0.7550499999995245
-1.499999999999049, 0.7500499999995245
-1.489999999999049, 0.7450499999995245
-1.479999999999049, 0.7400499999995245
-1.469999999999049, 0.7350499999995245
-1.459999999999049, 0.7300499999995245
-1.449999999999049, 0.7250499999995245
-1.439999999999049, 0.7200499999995245
-1.429999999999049, 0.7150499999995245
-1.419999999999049, 0.7100499999995245
-1.409999999999049, 0.7050499999995244
-1.399999999999049, 0.7000499999995244
-1.3899999999990489, 0.6950499999995244
-1.3799999999990489, 0.6900499999995244
-1.3699999999990489, 0.6850499999995244
-1.3599999999990489, 0.6800499999995244
-1.3499999999990488, 0.6750499999995244
-1.3399999999990488, 0.6700499999995244
-1.3299999999990488, 0.6650499999995244
-1.3199999999990488, 0.6600499999995244
-1.3099999999990488, 0.6550499999995244
-1.2999999999990488, 0.6500499999995244
-1.2899999999990488, 0.6450499999995244
-1.2799999999990488, 0.6400499999995244
-1.2699999999990488, 0.6350499999995244
-1.2599999999990488, 0.6300499999995244
-1.2499999999990488, 0.6250499999995244
-1.2399999999990488, 0.6200499999995244
-1.2299999999990487, 0.6150499999995244
-1.2199999999990487, 0.6100499999995244
-1.2099999999990487, 0.6050499999995244
-1.1999999999990487, 0.6000499999995244
-1.1899999999990487, 0.5950499999995243
-1.1799999999990487, 0.5900499999995243
-1.1699999999990487, 0.5850499999995243
-1.1599999999990487, 0.5800499999995243
-1.1499999999990487, 0.5750499999995243
-1.1399999999990487, 0.5700499999995243
-1.1299999999990487, 0.5650499999995243
-1.1199999999990486, 0.5600499999995243
-1.1099999999990486, 0.5550499999995243
-1.0999999999990486, 0.5500499999995243
-1.0899999999990486, 0.5450499999995243
-1.0799999999990486, 0.5400499999995243
-1.0699999999990486, 0.5350499999995243
-1.0599999999990486, 0.5300499999995243
-1.0499999999990486, 0.5250499999995243
-1.0399999999990486, 0.5200499999995243
-1.0299999999990486, 0.5150499999995243
-1.0199999999990486, 0.5100499999995243
-1.0099999999990485, 0.5050499999995243
-0.9999999999990485, 0.5000499999995243
-0.9899999999990485, 0.49504999999952426
-0.9799999999990485, 0.49004999999952426
-0.9699999999990485, 0.48504999999952425
-0.9599999999990485, 0.48004999999952425
-0.9499999999990485, 0.47504999999952424
-0.9399999999990485, 0.47004999999952424
-0.9299999999990485, 0.46504999999952423
-0.9199999999990485, 0.46004999999952423
-0.9099999999990485, 0.4550499999995242
-0.8999999999990485, 0.4500499999995242
-0.8899999999990484, 0.4450499999995242
-0.8799999999990484, 0.4400499999995242
-0.8699999999990484, 0.4350499999995242
-0.8599999999990484, 0.4300499999995242
-0.8499999999990484, 0.4250499999995242
-0.8399999999990484, 0.4200499999995242
-0.8299999999990484, 0.4150499999995242
-0.8199999999990484, 0.4100499999995242
-0.8099999999990484, 0.4050499999995242
-0.7999999999990484, 0.4000499999995242
-0.7899999999990484, 0.39504999999952417
-0.7799999999990483, 0.39004999999952417
-0.7699999999990483, 0.38504999999952416
-0.7599999999990483, 0.38004999999952416
-0.7499999999990483, 0.37504999999952415
-0.7399999999990483, 0.37004999999952415
-0.7299999999990483, 0.36504999999952414
-0.7199999999990483, 0.36004999999952414
-0.7099999999990483, 0.35504999999952414
-0.6999999999990483, 0.35004999999952413
-0.6899999999990483, 0.3450499999995241
-0.6799999999990483, 0.3400499999995241
-0.6699999999990482, 0.3350499999995241
-0.6599999999990482, 0.3300499999995241
-0.6499999999990482, 0.3250499999995241
-0.6399999999990482, 0.3200499999995241
-0.6299999999990482, 0.3150499999995241
-0.6199999999990482, 0.3100499999995241
-0.6099999999990482, 0.3050499999995241
-0.5999999999990482, 0.3000499999995241
-0.5899999999990482, 0.2950499999995241
-0.5799999999990482, 0.2900499999995241
-0.5699999999990482, 0.2850499999995241
-0.5599999999990481, 0.28004999999952407
-0.5499999999990481, 0.27504999999952406
-0.5399999999990481, 0.27004999999952406
-0.5299999999990481, 0.26504999999952406
-0.5199999999990481, 0.26004999999952405
-0.5099999999990481, 0.25504999999952405
-0.4999999999990481, 0.25004999999952404
-0.4899999999990481, 0.24504999999952404
-0.4799999999990481, 0.24004999999952403
-0.46999999999904807, 0.23504999999952403
-0.45999999999904806, 0.23004999999952402
-0.44999999999904805, 0.22504999999952402
-0.43999999999904804, 0.22004999999952402
-0.42999999999904803, 0.215049999999524
-0.419999999999048, 0.210049999999524
-0.409999999999048, 0.205049999999524
-0.399999999999048, 0.200049999999524
-0.389999999999048, 0.195049999999524
-0.379999999999048, 0.190049999999524
-0.369999999999048, 0.18504999999952398
-0.35999999999904797, 0.18004999999952398
-0.34999999999904796, 0.17504999999952398
-0.33999999999904795, 0.17004999999952397
-0.32999999999904794, 0.16504999999952397
-0.31999999999904793, 0.16004999999952396
-0.3099999999990479, 0.15504999999952396
-0.2999999999990479, 0.15004999999952395
-0.2899999999990479, 0.14504999999952395
-0.2799999999990479, 0.14004999999952394
-0.2699999999990479, 0.13504999999952394
-0.2599999999990479, 0.13004999999952394
-0.24999999999904787, 0.12504999999952393
-0.23999999999904786, 0.12004999999952393
-0.22999999999904785, 0.11504999999952392
-0.21999999999904785, 0.11004999999952392
-0.20999999999904784, 0.10504999999952391
-0.19999999999904783, 0.10004999999952391
-0.18999999999904782, 0.0950499999995239
-0.1799999999990478, 0.0900499999995239
-0.1699999999990478, 0.0850499999995239
-0.1599999999990478, 0.08004999999952389
-0.14999999999904778, 0.07504999999952389
-0.13999999999904778, 0.07004999999952388
-0.12999999999904777, 0.06504999999952388
-0.11999999999904777, 0.06004999999952389
-0.10999999999904778, 0.05504999999952389
-0.09999999999904778, 0.05004999999952389
-0.08999999999904779, 0.045049999999523895
-0.07999999999904779, 0.0400499999995239
-0.0699999999990478, 0.0350499999995239
-0.059999999999047794, 0.0300499999995239
-0.04999999999904779, 0.025049999999523898
-0.03999999999904779, 0.020049999999523897
-0.02999999999904779, 0.015049999999523894
-0.019999999999047786, 0.010049999999523893
-0.009999999999047786, 0.005049999999523893
9.52214002092333E-13, 4.9999999523893E-5
0.010000000000952214, 0.004950000000476107
0.020000000000952214, 0.009950000000476108
0.030000000000952216, 0.014950000000476108
0.04000000000095222, 0.019950000000476108
0.05000000000095222, 0.02495000000047611
0.06000000000095222, 0.02995000000047611
0.07000000000095222, 0.03495000000047611
0.08000000000095221, 0.039950000000476105
0.09000000000095221, 0.0449500000004761
0.1000000000009522, 0.0499500000004761
0.1100000000009522, 0.0549500000004761
0.12000000000095219, 0.059950000000476095
0.1300000000009522, 0.0649500000004761
0.1400000000009522, 0.0699500000004761
0.1500000000009522, 0.07495000000047611
0.1600000000009522, 0.07995000000047611
0.17000000000095222, 0.08495000000047612
0.18000000000095223, 0.08995000000047612
0.19000000000095224, 0.09495000000047613
0.20000000000095225, 0.09995000000047613
0.21000000000095226, 0.10495000000047613
0.22000000000095227, 0.10995000000047614
0.23000000000095228, 0.11495000000047614
0.24000000000095228, 0.11995000000047615
0.2500000000009523, 0.12495000000047615
0.2600000000009523, 0.12995000000047616
0.2700000000009523, 0.13495000000047616
0.2800000000009523, 0.13995000000047617
0.29000000000095233, 0.14495000000047617
0.30000000000095234, 0.14995000000047617
0.31000000000095235, 0.15495000000047618
0.32000000000095236, 0.15995000000047618
0.33000000000095236, 0.1649500000004762
0.3400000000009524, 0.1699500000004762
0.3500000000009524, 0.1749500000004762
0.3600000000009524, 0.1799500000004762
0.3700000000009524, 0.1849500000004762
0.3800000000009524, 0.1899500000004762
0.3900000000009524, 0.19495000000047621
0.4000000000009524, 0.19995000000047622
0.41000000000095244, 0.20495000000047622
0.42000000000095244, 0.20995000000047623
0.43000000000095245, 0.21495000000047623
0.44000000000095246, 0.21995000000047624
0.45000000000095247, 0.22495000000047624
0.4600000000009525, 0.22995000000047625
0.4700000000009525, 0.23495000000047625
0.4800000000009525, 0.23995000000047625
0.4900000000009525, 0.24495000000047626
0.5000000000009525, 0.24995000000047624
0.5100000000009525, 0.25495000000047624
0.5200000000009525, 0.25995000000047624
0.5300000000009525, 0.26495000000047625
0.5400000000009525, 0.26995000000047625
0.5500000000009525, 0.27495000000047626
0.5600000000009525, 0.27995000000047626
0.5700000000009525, 0.28495000000047627
0.5800000000009525, 0.28995000000047627
0.5900000000009525, 0.2949500000004763
0.6000000000009525, 0.2999500000004763
0.6100000000009526, 0.3049500000004763
0.6200000000009526, 0.3099500000004763
0.6300000000009526, 0.3149500000004763
0.6400000000009526, 0.3199500000004763
0.6500000000009526, 0.3249500000004763
0.6600000000009526, 0.3299500000004763
0.6700000000009526, 0.3349500000004763
0.6800000000009526, 0.3399500000004763
0.6900000000009526, 0.3449500000004763
0.7000000000009526, 0.3499500000004763
0.7100000000009526, 0.35495000000047633
0.7200000000009527, 0.35995000000047633
0.7300000000009527, 0.36495000000047634
0.7400000000009527, 0.36995000000047634
0.7500000000009527, 0.37495000000047635
0.7600000000009527, 0.37995000000047635
0.7700000000009527, 0.38495000000047636
0.7800000000009527, 0.38995000000047636
0.7900000000009527, 0.39495000000047636
0.8000000000009527, 0.39995000000047637
0.8100000000009527, 0.4049500000004764
0.8200000000009527, 0.4099500000004764
0.8300000000009528, 0.4149500000004764
0.8400000000009528, 0.4199500000004764
0.8500000000009528, 0.4249500000004764
0.8600000000009528, 0.4299500000004764
0.8700000000009528, 0.4349500000004764
0.8800000000009528, 0.4399500000004764
0.8900000000009528, 0.4449500000004764
0.9000000000009528, 0.4499500000004764
0.9100000000009528, 0.4549500000004764
0.9200000000009528, 0.4599500000004764
0.9300000000009528, 0.4649500000004764
0.9400000000009529, 0.46995000000047643
0.9500000000009529, 0.47495000000047644
0.9600000000009529, 0.47995000000047644
0.9700000000009529, 0.48495000000047644
0.9800000000009529, 0.48995000000047645
0.9900000000009529, 0.49495000000047645
1.0000000000009528, 0.4999500000004764
1.0100000000009528, 0.5049500000004764
1.0200000000009528, 0.5099500000004764
1.0300000000009528, 0.5149500000004764
1.0400000000009528, 0.5199500000004764
1.0500000000009528, 0.5249500000004764
1.0600000000009528, 0.5299500000004764
1.0700000000009529, 0.5349500000004764
1.0800000000009529, 0.5399500000004764
1.0900000000009529, 0.5449500000004764
1.1000000000009529, 0.5499500000004764
1.110000000000953, 0.5549500000004765
1.120000000000953, 0.5599500000004765
1.130000000000953, 0.5649500000004765
1.140000000000953, 0.5699500000004765
1.150000000000953, 0.5749500000004765
1.160000000000953, 0.5799500000004765
1.170000000000953, 0.5849500000004765
1.180000000000953, 0.5899500000004765
1.190000000000953, 0.5949500000004765
1.200000000000953, 0.5999500000004765
1.210000000000953, 0.6049500000004765
1.220000000000953, 0.6099500000004765
1.230000000000953, 0.6149500000004765
1.240000000000953, 0.6199500000004765
1.250000000000953, 0.6249500000004765
1.260000000000953, 0.6299500000004765
1.270000000000953, 0.6349500000004765
1.280000000000953, 0.6399500000004765
1.290000000000953, 0.6449500000004765
1.300000000000953, 0.6499500000004765
1.310000000000953, 0.6549500000004765
1.320000000000953, 0.6599500000004765
1.330000000000953, 0.6649500000004765
1.340000000000953, 0.6699500000004766
1.350000000000953, 0.6749500000004766
1.3600000000009531, 0.6799500000004766
1.3700000000009531, 0.6849500000004766
1.3800000000009531, 0.6899500000004766
1.3900000000009531, 0.6949500000004766
1.4000000000009531, 0.6999500000004766
1.4100000000009532, 0.7049500000004766
1.4200000000009532, 0.7099500000004766
1.4300000000009532, 0.7149500000004766
1.4400000000009532, 0.7199500000004766
1.4500000000009532, 0.7249500000004766
1.4600000000009532, 0.7299500000004766
1.4700000000009532, 0.7349500000004766
1.4800000000009532, 0.7399500000004766
1.4900000000009532, 0.7449500000004766
1.5000000000009532, 0.7499500000004766
1.5100000000009532, 0.7549500000004766
1.5200000000009533, 0.7599500000004766
1.5300000000009533, 0.7649500000004766
1.5400000000009533, 0.7699500000004766
1.5500000000009533, 0.7749500000004766
1.5600000000009533, 0.7799500000004767
1.5700000000009533, 0.7849500000004767
1.5800000000009533, 0.7899500000004767
1.5900000000009533, 0.7949500000004767
1.6000000000009533, 0.7999500000004767
1.6100000000009533, 0.8049500000004767
1.6200000000009533, 0.8099500000004767
1.6300000000009534, 0.8149500000004767
1.6400000000009534, 0.8199500000004767
1.6500000000009534, 0.8249500000004767
1.6600000000009534, 0.8299500000004767
1.6700000000009534, 0.8349500000004767
1.6800000000009534, 0.8399500000004767
1.6900000000009534, 0.8449500000004767
1.7000000000009534, 0.8499500000004767
1.7100000000009534, 0.8549500000004767
1.7200000000009534, 0.8599500000004767
1.7300000000009534, 0.8649500000004767
1.7400000000009535, 0.8699500000004767
1.7500000000009535, 0.8749500000004767
1.7600000000009535, 0.8799500000004767
1.7700000000009535, 0.8849500000004767
1.7800000000009535, 0.8899500000004767
1.7900000000009535, 0.8949500000004768
1.8000000000009535, 0.8999500000004768
1.8100000000009535, 0.9049500000004768
1.8200000000009535, 0.9099500000004768
1.8300000000009535, 0.9149500000004768
1.8400000000009535, 0.9199500000004768
1.8500000000009535, 0.9249500000004768
1.8600000000009536, 0.9299500000004768
1.8700000000009536, 0.9349500000004768
1.8800000000009536, 0.9399500000004768
1.8900000000009536, 0.9449500000004768
1.9000000000009536, 0.9499500000004768
1.9100000000009536, 0.9549500000004768
1.9200000000009536, 0.9599500000004768
1.9300000000009536, 0.9649500000004768
1.9400000000009536, 0.9699500000004768
1.9500000000009536, 0.9749500000004768
1.9600000000009536, 0.9799500000004768
1.9700000000009537, 0.9849500000004768
1.9800000000009537, 0.9899500000004768
1.9900000000009537, 0.9949500000004768
2.0000000000009535, 0.9999500000004767
2.0100000000009532, 1.0049500000004765
2.020000000000953, 1.0099500000004764
2.030000000000953, 1.0149500000004763
2.0400000000009526, 1.0199500000004762
2.0500000000009524, 1.024950000000476
2.060000000000952, 1.029950000000476
2.070000000000952, 1.0349500000004759
2.0800000000009518, 1.0399500000004758
2.0900000000009515, 1.0449500000004757
2.1000000000009513, 1.0499500000004756
2.110000000000951, 1.0549500000004755
2.120000000000951, 1.0599500000004753
2.1300000000009507, 1.0649500000004752
2.1400000000009505, 1.0699500000004751
2.1500000000009503, 1.074950000000475
2.16000000000095, 1.079950000000475
2.17000000000095, 1.0849500000004748
2.1800000000009496, 1.0899500000004747
2.1900000000009494, 1.0949500000004746
2.200000000000949, 1.0999500000004745
2.210000000000949, 1.1049500000004744
2.2200000000009488, 1.1099500000004743
2.2300000000009486, 1.1149500000004742
2.2400000000009483, 1.119950000000474
2.250000000000948, 1.124950000000474
2.260000000000948, 1.1299500000004739
2.2700000000009477, 1.1349500000004737
2.2800000000009475, 1.1399500000004736
2.2900000000009473, 1.1449500000004735
2.300000000000947, 1.1499500000004734
2.310000000000947, 1.1549500000004733
2.3200000000009466, 1.1599500000004732
2.3300000000009464, 1.164950000000473
2.340000000000946, 1.169950000000473
2.350000000000946, 1.174950000000473
2.360000000000946, 1.1799500000004728
2.3700000000009456, 1.1849500000004727
2.3800000000009454, 1.1899500000004726
2.390000000000945, 1.1949500000004725
2.400000000000945, 1.1999500000004724
2.4100000000009447, 1.2049500000004723
2.4200000000009445, 1.2099500000004721
2.4300000000009443, 1.214950000000472
2.440000000000944, 1.219950000000472
2.450000000000944, 1.2249500000004718
2.4600000000009437, 1.2299500000004717
2.4700000000009434, 1.2349500000004716
2.4800000000009432, 1.2399500000004715
2.490000000000943, 1.2449500000004714
2.500000000000943, 1.2499500000004713
2.5100000000009426, 1.2549500000004712
2.5200000000009424, 1.259950000000471
2.530000000000942, 1.264950000000471
2.540000000000942, 1.2699500000004709
2.5500000000009417, 1.2749500000004708
2.5600000000009415, 1.2799500000004707
2.5700000000009413, 1.2849500000004705
2.580000000000941, 1.2899500000004704
2.590000000000941, 1.2949500000004703
2.6000000000009407, 1.2999500000004702
2.6100000000009405, 1.3049500000004701
2.6200000000009402, 1.30995000000047
2.63000000000094, 1.31495000000047
2.64000000000094, 1.3199500000004698
2.6500000000009396, 1.3249500000004697
2.6600000000009394, 1.3299500000004696
2.670000000000939, 1.3349500000004695
2.680000000000939, 1.3399500000004694
2.6900000000009388, 1.3449500000004693
2.7000000000009385, 1.3499500000004692
2.7100000000009383, 1.354950000000469
2.720000000000938, 1.359950000000469
2.730000000000938, 1.3649500000004688
2.7400000000009377, 1.3699500000004687
2.7500000000009375, 1.3749500000004686
2.7600000000009373, 1.3799500000004685
2.770000000000937, 1.3849500000004684
2.780000000000937, 1.3899500000004683
2.7900000000009366, 1.3949500000004682
2.8000000000009364, 1.399950000000468
2.810000000000936, 1.404950000000468
2.820000000000936, 1.4099500000004679
2.8300000000009358, 1.4149500000004678
2.8400000000009356, 1.4199500000004677
2.8500000000009353, 1.4249500000004676
2.860000000000935, 1.4299500000004675
2.870000000000935, 1.4349500000004674
2.8800000000009347, 1.4399500000004672
2.8900000000009345, 1.4449500000004671
2.9000000000009343, 1.449950000000467
2.910000000000934, 1.454950000000467
2.920000000000934, 1.4599500000004668
2.9300000000009336, 1.4649500000004667
2.9400000000009334, 1.4699500000004666
2.950000000000933, 1.4749500000004665
2.960000000000933, 1.4799500000004664
2.970000000000933, 1.4849500000004663
2.9800000000009326, 1.4899500000004662
2.9900000000009324, 1.494950000000466
3.000000000000932, 1.499950000000466
3.010000000000932, 1.5049500000004659
3.0200000000009317, 1.5099500000004658
3.0300000000009315, 1.5149500000004656
3.0400000000009313, 1.5199500000004655
3.050000000000931, 1.5249500000004654
3.060000000000931, 1.5299500000004653
3.0700000000009307, 1.5349500000004652
3.0800000000009304, 1.5399500000004651
3.0900000000009302, 1.544950000000465
3.10000000000093, 1.549950000000465
3.11000000000093, 1.5549500000004648
3.1200000000009296, 1.5599500000004647
3.1300000000009294, 1.5649500000004646
3.140000000000929, 1.5699500000004645
3.150000000000929, 1.5749500000004644
3.1600000000009287, 1.5799500000004643
3.1700000000009285, 1.5849500000004642
3.1800000000009283, 1.589950000000464
3.190000000000928, 1.594950000000464
3.200000000000928, 1.5999500000004638
3.2100000000009277, 1.6049500000004637
3.2200000000009275, 1.6099500000004636
3.2300000000009272, 1.6149500000004635
3.240000000000927, 1.6199500000004634
3.250000000000927, 1.6249500000004633
3.2600000000009266, 1.6299500000004632
3.2700000000009264, 1.634950000000463
3.280000000000926, 1.639950000000463
3.290000000000926, 1.6449500000004629
3.3000000000009257, 1.6499500000004628
3.3100000000009255, 1.6549500000004627
3.3200000000009253, 1.6599500000004626
3.330000000000925, 1.6649500000004624
3.340000000000925, 1.6699500000004623
3.3500000000009247, 1.6749500000004622
3.3600000000009245, 1.6799500000004621
3.3700000000009243, 1.684950000000462
3.380000000000924, 1.689950000000462
3.390000000000924, 1.6949500000004618
3.4000000000009236, 1.6999500000004617
3.4100000000009234, 1.7049500000004616
3.420000000000923, 1.7099500000004615
3.430000000000923, 1.7149500000004614
3.4400000000009228, 1.7199500000004613
3.4500000000009226, 1.7249500000004612
3.4600000000009223, 1.729950000000461
3.470000000000922, 1.734950000000461
3.480000000000922, 1.7399500000004609
3.4900000000009217, 1.7449500000004607
3.5000000000009215, 1.7499500000004606
3.5100000000009213, 1.7549500000004605
3.520000000000921, 1.7599500000004604
3.530000000000921, 1.7649500000004603
3.5400000000009206, 1.7699500000004602
3.5500000000009204, 1.77495000000046
3.56000000000092, 1.77995000000046
3.57000000000092, 1.78495000000046
3.58000000000092, 1.7899500000004598
3.5900000000009196, 1.7949500000004597
3.6000000000009194, 1.7999500000004596
3.610000000000919, 1.8049500000004595
3.620000000000919, 1.8099500000004594
3.6300000000009187, 1.8149500000004593
3.6400000000009185, 1.8199500000004591
3.6500000000009183, 1.824950000000459
3.660000000000918, 1.829950000000459
3.670000000000918, 1.8349500000004588
3.6800000000009176, 1.8399500000004587
3.6900000000009174, 1.8449500000004586
3.700000000000917, 1.8499500000004585
3.710000000000917, 1.8549500000004584
3.720000000000917, 1.8599500000004583
3.7300000000009166, 1.8649500000004582
3.7400000000009164, 1.869950000000458
3.750000000000916, 1.874950000000458
3.760000000000916, 1.8799500000004579
3.7700000000009157, 1.8849500000004578
3.7800000000009155, 1.8899500000004577
3.7900000000009153, 1.8949500000004575
3.800000000000915, 1.8999500000004574
3.810000000000915, 1.9049500000004573
3.8200000000009147, 1.9099500000004572
3.8300000000009145, 1.9149500000004571
3.8400000000009142, 1.919950000000457
3.850000000000914, 1.924950000000457
3.860000000000914, 1.9299500000004568
3.8700000000009136, 1.9349500000004567
3.8800000000009134, 1.9399500000004566
3.890000000000913, 1.9449500000004565
3.900000000000913, 1.9499500000004564
3.9100000000009127, 1.9549500000004563
3.9200000000009125, 1.9599500000004562
3.9300000000009123, 1.964950000000456
3.940000000000912, 1.969950000000456
3.950000000000912, 1.9749500000004558
3.9600000000009117, 1.9799500000004557
3.9700000000009115, 1.9849500000004556
3.9800000000009113, 1.9899500000004555
3.990000000000911, 1.9949500000004554
4.000000000000911, 1.9999500000004555
4.010000000000911, 2.0049500000004556
4.020000000000911, 2.0099500000004555
4.030000000000911, 2.0149500000004554
4.04000000000091, 2.0199500000004553
4.05000000000091, 2.024950000000455
4.06000000000091, 2.029950000000455
4.07000000000091, 2.034950000000455
4.08000000000091, 2.039950000000455
4.090000000000909, 2.044950000000455
4.100000000000909, 2.0499500000004547
4.110000000000909, 2.0549500000004546
4.120000000000909, 2.0599500000004545
4.1300000000009085, 2.0649500000004544
4.140000000000908, 2.0699500000004543
4.150000000000908, 2.074950000000454
4.160000000000908, 2.079950000000454
4.170000000000908, 2.084950000000454
4.180000000000907, 2.089950000000454
4.190000000000907, 2.0949500000004537
4.200000000000907, 2.0999500000004536
4.210000000000907, 2.1049500000004535
4.220000000000907, 2.1099500000004534
4.230000000000906, 2.1149500000004533
4.240000000000906, 2.119950000000453
4.250000000000906, 2.124950000000453
4.260000000000906, 2.129950000000453
4.2700000000009055, 2.134950000000453
4.280000000000905, 2.1399500000004528
4.290000000000905, 2.1449500000004527
4.300000000000905, 2.1499500000004526
4.310000000000905, 2.1549500000004524
4.3200000000009044, 2.1599500000004523
4.330000000000904, 2.1649500000004522
4.340000000000904, 2.169950000000452
4.350000000000904, 2.174950000000452
4.360000000000904, 2.179950000000452
4.370000000000903, 2.184950000000452
4.380000000000903, 2.1899500000004517
4.390000000000903, 2.1949500000004516
4.400000000000903, 2.1999500000004515
4.4100000000009025, 2.2049500000004514
4.420000000000902, 2.2099500000004513
4.430000000000902, 2.214950000000451
4.440000000000902, 2.219950000000451
4.450000000000902, 2.224950000000451
4.4600000000009015, 2.229950000000451
4.470000000000901, 2.2349500000004507
4.480000000000901, 2.2399500000004506
4.490000000000901, 2.2449500000004505
4.500000000000901, 2.2499500000004504
4.5100000000009, 2.2549500000004503
4.5200000000009, 2.25995000000045
4.5300000000009, 2.26495000000045
4.5400000000009, 2.26995000000045
4.5500000000008995, 2.27495000000045
4.560000000000899, 2.27995000000045
4.570000000000899, 2.2849500000004497
4.580000000000899, 2.2899500000004496
4.590000000000899, 2.2949500000004495
4.6000000000008985, 2.2999500000004494
4.610000000000898, 2.3049500000004493
4.620000000000898, 2.309950000000449
4.630000000000898, 2.314950000000449
4.640000000000898, 2.319950000000449
4.650000000000897, 2.324950000000449
4.660000000000897, 2.3299500000004487
4.670000000000897, 2.3349500000004486
4.680000000000897, 2.3399500000004485
4.690000000000897, 2.3449500000004484
4.700000000000896, 2.3499500000004483
4.710000000000896, 2.354950000000448
4.720000000000896, 2.359950000000448
4.730000000000896, 2.364950000000448
4.7400000000008955, 2.369950000000448
4.750000000000895, 2.3749500000004478
4.760000000000895, 2.3799500000004477
4.770000000000895, 2.3849500000004475
4.780000000000895, 2.3899500000004474
4.790000000000894, 2.3949500000004473
4.800000000000894, 2.3999500000004472
4.810000000000894, 2.404950000000447
4.820000000000894, 2.409950000000447
4.830000000000894, 2.414950000000447
4.840000000000893, 2.419950000000447
4.850000000000893, 2.4249500000004467
4.860000000000893, 2.4299500000004466
4.870000000000893, 2.4349500000004465
4.8800000000008925, 2.4399500000004464
4.890000000000892, 2.4449500000004463
4.900000000000892, 2.449950000000446
4.910000000000892, 2.454950000000446
4.920000000000892, 2.459950000000446
4.9300000000008914, 2.464950000000446
4.940000000000891, 2.4699500000004457
4.950000000000891, 2.4749500000004456
4.960000000000891, 2.4799500000004455
4.970000000000891, 2.4849500000004454
4.98000000000089, 2.4899500000004453
4.99000000000089, 2.494950000000445
5.00000000000089, 2.499950000000445
5.01000000000089, 2.504950000000445
5.0200000000008895, 2.509950000000445
5.030000000000889, 2.5149500000004448
5.040000000000889, 2.5199500000004447
5.050000000000889, 2.5249500000004446
5.060000000000889, 2.5299500000004445
5.0700000000008885, 2.5349500000004443
5.080000000000888, 2.5399500000004442
5.090000000000888, 2.544950000000444
5.100000000000888, 2.549950000000444
5.110000000000888, 2.554950000000444
5.120000000000887, 2.559950000000444
5.130000000000887, 2.5649500000004437
5.140000000000887, 2.5699500000004436
5.150000000000887, 2.5749500000004435
5.1600000000008865, 2.5799500000004434
5.170000000000886, 2.5849500000004433
5.180000000000886, 2.589950000000443
5.190000000000886, 2.594950000000443
5.200000000000886, 2.599950000000443
5.2100000000008855, 2.604950000000443
5.220000000000885, 2.6099500000004427
5.230000000000885, 2.6149500000004426
5.240000000000885, 2.6199500000004425
5.250000000000885, 2.6249500000004424
5.260000000000884, 2.6299500000004423
5.270000000000884, 2.634950000000442
5.280000000000884, 2.639950000000442
5.290000000000884, 2.644950000000442
5.300000000000884, 2.649950000000442
5.310000000000883, 2.654950000000442
5.320000000000883, 2.6599500000004417
5.330000000000883, 2.6649500000004416
5.340000000000883, 2.6699500000004415
5.3500000000008825, 2.6749500000004414
5.360000000000882, 2.6799500000004413
5.370000000000882, 2.684950000000441
5.380000000000882, 2.689950000000441
5.390000000000882, 2.694950000000441
5.400000000000881, 2.699950000000441
5.410000000000881, 2.7049500000004407
5.420000000000881, 2.7099500000004406
5.430000000000881, 2.7149500000004405
5.440000000000881, 2.7199500000004404
5.45000000000088, 2.7249500000004403
5.46000000000088, 2.72995000000044
5.47000000000088, 2.73495000000044
5.48000000000088, 2.73995000000044
5.4900000000008795, 2.74495000000044
5.500000000000879, 2.7499500000004398
5.510000000000879, 2.7549500000004397
5.520000000000879, 2.7599500000004396
5.530000000000879, 2.7649500000004394
5.540000000000878, 2.7699500000004393
5.550000000000878, 2.7749500000004392
5.560000000000878, 2.779950000000439
5.570000000000878, 2.784950000000439
5.580000000000878, 2.789950000000439
5.590000000000877, 2.794950000000439
5.600000000000877, 2.7999500000004387
5.610000000000877, 2.8049500000004386
5.620000000000877, 2.8099500000004385
5.6300000000008765, 2.8149500000004384
5.640000000000876, 2.8199500000004383
5.650000000000876, 2.824950000000438
5.660000000000876, 2.829950000000438
5.670000000000876, 2.834950000000438
5.6800000000008755, 2.839950000000438
5.690000000000875, 2.8449500000004377
5.700000000000875, 2.8499500000004376
5.710000000000875, 2.8549500000004375
5.720000000000875, 2.8599500000004374
5.730000000000874, 2.8649500000004373
5.740000000000874, 2.869950000000437
5.750000000000874, 2.874950000000437
5.760000000000874, 2.879950000000437
5.7700000000008735, 2.884950000000437
5.780000000000873, 2.889950000000437
5.790000000000873, 2.8949500000004367
5.800000000000873, 2.8999500000004366
5.810000000000873, 2.9049500000004365
5.8200000000008725, 2.9099500000004364
5.830000000000872, 2.9149500000004362
5.840000000000872, 2.919950000000436
5.850000000000872, 2.924950000000436
5.860000000000872, 2.929950000000436
5.870000000000871, 2.934950000000436
5.880000000000871, 2.9399500000004357
5.890000000000871, 2.9449500000004356
5.900000000000871, 2.9499500000004355
5.910000000000871, 2.9549500000004354
5.92000000000087, 2.9599500000004353
5.93000000000087, 2.964950000000435
5.94000000000087, 2.969950000000435
5.95000000000087, 2.974950000000435
5.9600000000008695, 2.979950000000435
5.970000000000869, 2.9849500000004348
5.980000000000869, 2.9899500000004346
5.990000000000869, 2.9949500000004345
6.000000000000869, 2.9999500000004344
6.010000000000868, 3.0049500000004343
6.020000000000868, 3.0099500000004342
6.030000000000868, 3.014950000000434
6.040000000000868, 3.019950000000434
6.050000000000868, 3.024950000000434
6.060000000000867, 3.029950000000434
6.070000000000867, 3.0349500000004337
6.080000000000867, 3.0399500000004336
6.090000000000867, 3.0449500000004335
6.1000000000008665, 3.0499500000004334
6.110000000000866, 3.0549500000004333
6.120000000000866, 3.059950000000433
6.130000000000866, 3.064950000000433
6.140000000000866, 3.069950000000433
6.150000000000865, 3.074950000000433
6.160000000000865, 3.0799500000004327
6.170000000000865, 3.0849500000004326
6.180000000000865, 3.0899500000004325
6.190000000000865, 3.0949500000004324
6.200000000000864, 3.0999500000004323
6.210000000000864, 3.104950000000432
6.220000000000864, 3.109950000000432
6.230000000000864, 3.114950000000432
6.2400000000008635, 3.119950000000432
6.250000000000863, 3.1249500000004318
6.260000000000863, 3.1299500000004317
6.270000000000863, 3.1349500000004316
6.280000000000863, 3.1399500000004315
6.2900000000008625, 3.1449500000004313
6.300000000000862, 3.1499500000004312
6.310000000000862, 3.154950000000431
6.320000000000862, 3.159950000000431
6.330000000000862, 3.164950000000431
6.340000000000861, 3.169950000000431
6.350000000000861, 3.1749500000004307
6.360000000000861, 3.1799500000004306
6.370000000000861, 3.1849500000004305
6.3800000000008605, 3.1899500000004304
6.39000000000086, 3.1949500000004303
6.40000000000086, 3.19995000000043
6.41000000000086, 3.20495000000043
6.42000000000086, 3.20995000000043
6.4300000000008595, 3.21495000000043
6.440000000000859, 3.2199500000004297
6.450000000000859, 3.2249500000004296
6.460000000000859, 3.2299500000004295
6.470000000000859, 3.2349500000004294
6.480000000000858, 3.2399500000004293
6.490000000000858, 3.244950000000429
6.500000000000858, 3.249950000000429
6.510000000000858, 3.254950000000429
6.5200000000008576, 3.259950000000429
6.530000000000857, 3.264950000000429
6.540000000000857, 3.2699500000004287
6.550000000000857, 3.2749500000004286
6.560000000000857, 3.2799500000004285
6.5700000000008565, 3.2849500000004284
6.580000000000856, 3.2899500000004283
6.590000000000856, 3.294950000000428
6.600000000000856, 3.299950000000428
6.610000000000856, 3.304950000000428
6.620000000000855, 3.309950000000428
6.630000000000855, 3.3149500000004277
6.640000000000855, 3.3199500000004276
6.650000000000855, 3.3249500000004275
6.660000000000855, 3.3299500000004274
6.670000000000854, 3.3349500000004273
6.680000000000854, 3.339950000000427
6.690000000000854, 3.344950000000427
6.700000000000854, 3.349950000000427
6.7100000000008535, 3.354950000000427
6.720000000000853, 3.3599500000004268
6.730000000000853, 3.3649500000004267
6.740000000000853, 3.3699500000004265
6.750000000000853, 3.3749500000004264
6.760000000000852, 3.3799500000004263
6.770000000000852, 3.3849500000004262
6.780000000000852, 3.389950000000426
6.790000000000852, 3.394950000000426
6.800000000000852, 3.399950000000426
6.810000000000851, 3.404950000000426
6.820000000000851, 3.4099500000004257
6.830000000000851, 3.4149500000004256
6.840000000000851, 3.4199500000004255
6.8500000000008505, 3.4249500000004254
6.86000000000085, 3.4299500000004253
6.87000000000085, 3.434950000000425
6.88000000000085, 3.439950000000425
6.89000000000085, 3.444950000000425
6.9000000000008495, 3.449950000000425
6.910000000000849, 3.4549500000004247
6.920000000000849, 3.4599500000004246
6.930000000000849, 3.4649500000004245
6.940000000000849, 3.4699500000004244
6.950000000000848, 3.4749500000004243
6.960000000000848, 3.479950000000424
6.970000000000848, 3.484950000000424
6.980000000000848, 3.489950000000424
6.9900000000008475, 3.494950000000424
7.000000000000847, 3.4999500000004238
7.010000000000847, 3.5049500000004237
7.020000000000847, 3.5099500000004236
7.030000000000847, 3.5149500000004235
7.0400000000008465, 3.5199500000004234
7.050000000000846, 3.5249500000004232
7.060000000000846, 3.529950000000423
7.070000000000846, 3.534950000000423
7.080000000000846, 3.539950000000423
7.090000000000845, 3.544950000000423
7.100000000000845, 3.5499500000004227
7.110000000000845, 3.5549500000004226
7.120000000000845, 3.5599500000004225
7.1300000000008446, 3.5649500000004224
7.140000000000844, 3.5699500000004223
7.150000000000844, 3.574950000000422
7.160000000000844, 3.579950000000422
7.170000000000844, 3.584950000000422
7.1800000000008435, 3.589950000000422
7.190000000000843, 3.5949500000004218
7.200000000000843, 3.5999500000004216
7.210000000000843, 3.6049500000004215
7.220000000000843, 3.6099500000004214
7.230000000000842, 3.6149500000004213
7.240000000000842, 3.619950000000421
7.250000000000842, 3.624950000000421
7.260000000000842, 3.629950000000421
7.270000000000842, 3.634950000000421
7.280000000000841, 3.639950000000421
7.290000000000841, 3.6449500000004207
7.300000000000841, 3.6499500000004206
7.310000000000841, 3.6549500000004205
7.3200000000008405, 3.6599500000004204
7.33000000000084, 3.6649500000004203
7.34000000000084, 3.66995000000042
7.35000000000084, 3.67495000000042
7.36000000000084, 3.67995000000042
7.370000000000839, 3.68495000000042
7.380000000000839, 3.6899500000004197
7.390000000000839, 3.6949500000004196
7.400000000000839, 3.6999500000004195
7.410000000000839, 3.7049500000004194
7.420000000000838, 3.7099500000004193
7.430000000000838, 3.714950000000419
7.440000000000838, 3.719950000000419
7.450000000000838, 3.724950000000419
7.4600000000008375, 3.729950000000419
7.470000000000837, 3.7349500000004188
7.480000000000837, 3.7399500000004187
7.490000000000837, 3.7449500000004186
7.500000000000837, 3.7499500000004184
7.5100000000008365, 3.7549500000004183
7.520000000000836, 3.7599500000004182
7.530000000000836, 3.764950000000418
7.540000000000836, 3.769950000000418
7.550000000000836, 3.774950000000418
7.560000000000835, 3.779950000000418
7.570000000000835, 3.7849500000004177
7.580000000000835, 3.7899500000004176
7.590000000000835, 3.7949500000004175
7.6000000000008345, 3.7999500000004174
7.610000000000834, 3.8049500000004173
7.620000000000834, 3.809950000000417
7.630000000000834, 3.814950000000417
7.640000000000834, 3.819950000000417
7.6500000000008335, 3.824950000000417
7.660000000000833, 3.8299500000004167
7.670000000000833, 3.8349500000004166
7.680000000000833, 3.8399500000004165
7.690000000000833, 3.8449500000004164
7.700000000000832, 3.8499500000004163
7.710000000000832, 3.854950000000416
7.720000000000832, 3.859950000000416
7.730000000000832, 3.864950000000416
7.7400000000008315, 3.869950000000416
7.750000000000831, 3.874950000000416
7.760000000000831, 3.8799500000004157
7.770000000000831, 3.8849500000004156
7.780000000000831, 3.8899500000004155
7.7900000000008305, 3.8949500000004154
7.80000000000083, 3.8999500000004153
7.81000000000083, 3.904950000000415
7.82000000000083, 3.909950000000415
7.83000000000083, 3.914950000000415
7.840000000000829, 3.919950000000415
7.850000000000829, 3.9249500000004147
7.860000000000829, 3.9299500000004146
7.870000000000829, 3.9349500000004145
7.880000000000829, 3.9399500000004144
7.890000000000828, 3.9449500000004143
7.900000000000828, 3.949950000000414
7.910000000000828, 3.954950000000414
7.920000000000828, 3.959950000000414
7.9300000000008275, 3.964950000000414
7.940000000000827, 3.9699500000004138
7.950000000000827, 3.9749500000004137
7.960000000000827, 3.9799500000004135
7.970000000000827, 3.9849500000004134
7.980000000000826, 3.9899500000004133
7.990000000000826, 3.9949500000004132
8.000000000000826, 3.999950000000413
8.010000000000826, 4.004950000000413
8.020000000000826, 4.009950000000413
8.030000000000825, 4.014950000000413
8.040000000000825, 4.019950000000413
8.050000000000825, 4.024950000000413
8.060000000000825, 4.0299500000004125
8.070000000000825, 4.034950000000412
8.080000000000824, 4.039950000000412
8.090000000000824, 4.044950000000412
8.100000000000824, 4.049950000000412
8.110000000000824, 4.054950000000412
8.120000000000823, 4.059950000000412
8.130000000000823, 4.064950000000412
8.140000000000823, 4.069950000000412
8.150000000000823, 4.0749500000004115
8.160000000000823, 4.079950000000411
8.170000000000822, 4.084950000000411
8.180000000000822, 4.089950000000411
8.190000000000822, 4.094950000000411
8.200000000000822, 4.099950000000411
8.210000000000822, 4.104950000000411
8.220000000000821, 4.109950000000411
8.230000000000821, 4.114950000000411
8.240000000000821, 4.119950000000411
8.25000000000082, 4.1249500000004105
8.26000000000082, 4.12995000000041
8.27000000000082, 4.13495000000041
8.28000000000082, 4.13995000000041
8.29000000000082, 4.14495000000041
8.30000000000082, 4.14995000000041
8.31000000000082, 4.15495000000041
8.32000000000082, 4.15995000000041
8.330000000000819, 4.16495000000041
8.340000000000819, 4.1699500000004095
8.350000000000819, 4.174950000000409
8.360000000000818, 4.179950000000409
8.370000000000818, 4.184950000000409
8.380000000000818, 4.189950000000409
8.390000000000818, 4.194950000000409
8.400000000000817, 4.199950000000409
8.410000000000817, 4.204950000000409
8.420000000000817, 4.209950000000409
8.430000000000817, 4.2149500000004085
8.440000000000817, 4.219950000000408
8.450000000000816, 4.224950000000408
8.460000000000816, 4.229950000000408
8.470000000000816, 4.234950000000408
8.480000000000816, 4.239950000000408
8.490000000000816, 4.244950000000408
8.500000000000815, 4.249950000000408
8.510000000000815, 4.254950000000408
8.520000000000815, 4.259950000000408
8.530000000000815, 4.2649500000004075
8.540000000000814, 4.269950000000407
8.550000000000814, 4.274950000000407
8.560000000000814, 4.279950000000407
8.570000000000814, 4.284950000000407
8.580000000000814, 4.289950000000407
8.590000000000813, 4.294950000000407
8.600000000000813, 4.299950000000407
8.610000000000813, 4.304950000000407
8.620000000000813, 4.3099500000004065
8.630000000000813, 4.314950000000406
8.640000000000812, 4.319950000000406
8.650000000000812, 4.324950000000406
8.660000000000812, 4.329950000000406
8.670000000000812, 4.334950000000406
8.680000000000812, 4.339950000000406
8.690000000000811, 4.344950000000406
8.700000000000811, 4.349950000000406
8.71000000000081, 4.3549500000004056
8.72000000000081, 4.3599500000004054
8.73000000000081, 4.364950000000405
8.74000000000081, 4.369950000000405
8.75000000000081, 4.374950000000405
8.76000000000081, 4.379950000000405
8.77000000000081, 4.384950000000405
8.78000000000081, 4.389950000000405
8.79000000000081, 4.394950000000405
8.800000000000809, 4.399950000000405
8.810000000000809, 4.4049500000004045
8.820000000000809, 4.409950000000404
8.830000000000808, 4.414950000000404
8.840000000000808, 4.419950000000404
8.850000000000808, 4.424950000000404
8.860000000000808, 4.429950000000404
8.870000000000807, 4.434950000000404
8.880000000000807, 4.439950000000404
8.890000000000807, 4.444950000000404
8.900000000000807, 4.4499500000004035
8.910000000000807, 4.454950000000403
8.920000000000806, 4.459950000000403
8.930000000000806, 4.464950000000403
8.940000000000806, 4.469950000000403
8.950000000000806, 4.474950000000403
8.960000000000806, 4.479950000000403
8.970000000000805, 4.484950000000403
8.980000000000805, 4.489950000000403
8.990000000000805, 4.494950000000403
9.000000000000805, 4.4999500000004025
9.010000000000804, 4.504950000000402
9.020000000000804, 4.509950000000402
9.030000000000804, 4.514950000000402
9.040000000000804, 4.519950000000402
9.050000000000804, 4.524950000000402
9.060000000000803, 4.529950000000402
9.070000000000803, 4.534950000000402
9.080000000000803, 4.539950000000402
9.090000000000803, 4.5449500000004015
9.100000000000803, 4.549950000000401
9.110000000000802, 4.554950000000401
9.120000000000802, 4.559950000000401
9.130000000000802, 4.564950000000401
9.140000000000802, 4.569950000000401
9.150000000000801, 4.574950000000401
9.160000000000801, 4.579950000000401
9.170000000000801, 4.584950000000401
9.1800000000008, 4.5899500000004005
9.1900000000008, 4.5949500000004
9.2000000000008, 4.5999500000004
9.2100000000008, 4.6049500000004
9.2200000000008, 4.6099500000004
9.2300000000008, 4.6149500000004
9.2400000000008, 4.6199500000004
9.2500000000008, 4.6249500000004
9.2600000000008, 4.6299500000004
9.270000000000799, 4.6349500000004
9.280000000000799, 4.6399500000003995
9.290000000000799, 4.644950000000399
9.300000000000798, 4.649950000000399
9.310000000000798, 4.654950000000399
9.320000000000798, 4.659950000000399
9.330000000000798, 4.664950000000399
9.340000000000797, 4.669950000000399
9.350000000000797, 4.674950000000399
9.360000000000797, 4.679950000000399
9.370000000000797, 4.6849500000003985
9.380000000000797, 4.689950000000398
9.390000000000796, 4.694950000000398
9.400000000000796, 4.699950000000398
9.410000000000796, 4.704950000000398
9.420000000000796, 4.709950000000398
9.430000000000796, 4.714950000000398
9.440000000000795, 4.719950000000398
9.450000000000795, 4.724950000000398
9.460000000000795, 4.729950000000398
9.470000000000795, 4.7349500000003975
9.480000000000794, 4.739950000000397
9.490000000000794, 4.744950000000397
9.500000000000794, 4.749950000000397
9.510000000000794, 4.754950000000397
9.520000000000794, 4.759950000000397
9.530000000000793, 4.764950000000397
9.540000000000793, 4.769950000000397
9.550000000000793, 4.774950000000397
9.560000000000793, 4.7799500000003965
9.570000000000793, 4.784950000000396
9.580000000000792, 4.789950000000396
9.590000000000792, 4.794950000000396
9.600000000000792, 4.799950000000396
9.610000000000792, 4.804950000000396
9.620000000000791, 4.809950000000396
9.630000000000791, 4.814950000000396
9.640000000000791, 4.819950000000396
9.65000000000079, 4.8249500000003955
9.66000000000079, 4.829950000000395
9.67000000000079, 4.834950000000395
9.68000000000079, 4.839950000000395
9.69000000000079, 4.844950000000395
9.70000000000079, 4.849950000000395
9.71000000000079, 4.854950000000395
9.72000000000079, 4.859950000000395
9.73000000000079, 4.864950000000395
9.740000000000789, 4.869950000000395
9.750000000000789, 4.8749500000003945
9.760000000000788, 4.879950000000394
9.770000000000788, 4.884950000000394
9.780000000000788, 4.889950000000394
9.790000000000788, 4.894950000000394
9.800000000000788, 4.899950000000394
9.810000000000787, 4.904950000000394
9.820000000000787, 4.909950000000394
9.830000000000787, 4.914950000000394
9.840000000000787, 4.9199500000003935
9.850000000000787, 4.924950000000393
9.860000000000786, 4.929950000000393
9.870000000000786, 4.934950000000393
9.880000000000786, 4.939950000000393
9.890000000000786, 4.944950000000393
9.900000000000786, 4.949950000000393
9.910000000000785, 4.954950000000393
9.920000000000785, 4.959950000000393
9.930000000000785, 4.9649500000003925
9.940000000000785, 4.969950000000392
9.950000000000784, 4.974950000000392
9.960000000000784, 4.979950000000392
9.970000000000784, 4.984950000000392
9.980000000000784, 4.989950000000392
9.990000000000784, 4.994950000000392
10.000000000000783, 4.999950000000392
10.010000000000783, 5.004950000000392
10.020000000000783, 5.009950000000392
10.030000000000783, 5.0149500000003915
10.040000000000783, 5.019950000000391
10.050000000000782, 5.024950000000391
10.060000000000782, 5.029950000000391
10.070000000000782, 5.034950000000391
10.080000000000782, 5.039950000000391
10.090000000000781, 5.044950000000391
10.100000000000781, 5.049950000000391
10.110000000000781, 5.054950000000391
10.12000000000078, 5.0599500000003905
10.13000000000078, 5.06495000000039
10.14000000000078, 5.06995000000039
10.15000000000078, 5.07495000000039
10.16000000000078, 5.07995000000039
10.17000000000078, 5.08495000000039
10.18000000000078, 5.08995000000039
10.19000000000078, 5.09495000000039
10.200000000000779, 5.09995000000039
10.210000000000779, 5.10495000000039
10.220000000000779, 5.1099500000003895
10.230000000000778, 5.114950000000389
10.240000000000778, 5.119950000000389
10.250000000000778, 5.124950000000389
10.260000000000778, 5.129950000000389
10.270000000000778, 5.134950000000389
10.280000000000777, 5.139950000000389
10.290000000000777, 5.144950000000389
10.300000000000777, 5.149950000000389
10.310000000000777, 5.1549500000003885
10.320000000000777, 5.159950000000388
10.330000000000776, 5.164950000000388
10.340000000000776, 5.169950000000388
10.350000000000776, 5.174950000000388
10.360000000000776, 5.179950000000388
10.370000000000775, 5.184950000000388
10.380000000000775, 5.189950000000388
10.390000000000775, 5.194950000000388
10.400000000000775, 5.1999500000003875
10.410000000000775, 5.204950000000387
10.420000000000774, 5.209950000000387
10.430000000000774, 5.214950000000387
10.440000000000774, 5.219950000000387
10.450000000000774, 5.224950000000387
10.460000000000774, 5.229950000000387
10.470000000000773, 5.234950000000387
10.480000000000773, 5.239950000000387
10.490000000000773, 5.244950000000387
10.500000000000773, 5.2499500000003865
10.510000000000773, 5.254950000000386
10.520000000000772, 5.259950000000386
10.530000000000772, 5.264950000000386
10.540000000000772, 5.269950000000386
10.550000000000772, 5.274950000000386
10.560000000000771, 5.279950000000386
10.570000000000771, 5.284950000000386
10.580000000000771, 5.289950000000386
10.59000000000077, 5.2949500000003855
10.60000000000077, 5.299950000000385
10.61000000000077, 5.304950000000385
10.62000000000077, 5.309950000000385
10.63000000000077, 5.314950000000385
10.64000000000077, 5.319950000000385
10.65000000000077, 5.324950000000385
10.66000000000077, 5.329950000000385
10.670000000000769, 5.334950000000385
10.680000000000769, 5.3399500000003846
10.690000000000769, 5.3449500000003844
10.700000000000768, 5.349950000000384
10.710000000000768, 5.354950000000384
10.720000000000768, 5.359950000000384
10.730000000000768, 5.364950000000384
10.740000000000768, 5.369950000000384
10.750000000000767, 5.374950000000384
10.760000000000767, 5.379950000000384
10.770000000000767, 5.384950000000384
10.780000000000767, 5.3899500000003835
10.790000000000767, 5.394950000000383
10.800000000000766, 5.399950000000383
10.810000000000766, 5.404950000000383
10.820000000000766, 5.409950000000383
10.830000000000766, 5.414950000000383
10.840000000000765, 5.419950000000383
10.850000000000765, 5.424950000000383
10.860000000000765, 5.429950000000383
10.870000000000765, 5.4349500000003825
10.880000000000765, 5.439950000000382
10.890000000000764, 5.444950000000382
10.900000000000764, 5.449950000000382
10.910000000000764, 5.454950000000382
10.920000000000764, 5.459950000000382
10.930000000000764, 5.464950000000382
10.940000000000763, 5.469950000000382
10.950000000000763, 5.474950000000382
10.960000000000763, 5.479950000000382
10.970000000000763, 5.4849500000003815
10.980000000000762, 5.489950000000381
10.990000000000762, 5.494950000000381
11.000000000000762, 5.499950000000381
11.010000000000762, 5.504950000000381
11.020000000000762, 5.509950000000381
11.030000000000761, 5.514950000000381
11.040000000000761, 5.519950000000381
11.050000000000761, 5.524950000000381
11.06000000000076, 5.5299500000003805
11.07000000000076, 5.53495000000038
11.08000000000076, 5.53995000000038
11.09000000000076, 5.54495000000038
11.10000000000076, 5.54995000000038
11.11000000000076, 5.55495000000038
11.12000000000076, 5.55995000000038
11.13000000000076, 5.56495000000038
11.140000000000759, 5.56995000000038
11.150000000000759, 5.5749500000003795
11.160000000000759, 5.579950000000379
11.170000000000758, 5.584950000000379
11.180000000000758, 5.589950000000379
11.190000000000758, 5.594950000000379
11.200000000000758, 5.599950000000379
11.210000000000758, 5.604950000000379
11.220000000000757, 5.609950000000379
11.230000000000757, 5.614950000000379
11.240000000000757, 5.619950000000379
11.250000000000757, 5.6249500000003785
11.260000000000757, 5.629950000000378
11.270000000000756, 5.634950000000378
11.280000000000756, 5.639950000000378
11.290000000000756, 5.644950000000378
11.300000000000756, 5.649950000000378
11.310000000000755, 5.654950000000378
11.320000000000755, 5.659950000000378
11.330000000000755, 5.664950000000378
11.340000000000755, 5.6699500000003775
11.350000000000755, 5.674950000000377
11.360000000000754, 5.679950000000377
11.370000000000754, 5.684950000000377
11.380000000000754, 5.689950000000377
11.390000000000754, 5.694950000000377
11.400000000000754, 5.699950000000377
11.410000000000753, 5.704950000000377
11.420000000000753, 5.709950000000377
11.430000000000753, 5.714950000000377
11.440000000000753, 5.7199500000003765
11.450000000000752, 5.724950000000376
11.460000000000752, 5.729950000000376
11.470000000000752, 5.734950000000376
11.480000000000752, 5.739950000000376
11.490000000000752, 5.744950000000376
11.500000000000751, 5.749950000000376
11.510000000000751, 5.754950000000376
11.520000000000751, 5.759950000000376
11.53000000000075, 5.7649500000003755
11.54000000000075, 5.769950000000375
11.55000000000075, 5.774950000000375
11.56000000000075, 5.779950000000375
11.57000000000075, 5.784950000000375
11.58000000000075, 5.789950000000375
11.59000000000075, 5.794950000000375
11.60000000000075, 5.799950000000375
11.610000000000749, 5.804950000000375
11.620000000000749, 5.8099500000003745
11.630000000000749, 5.814950000000374
11.640000000000748, 5.819950000000374
11.650000000000748, 5.824950000000374
11.660000000000748, 5.829950000000374
11.670000000000748, 5.834950000000374
11.680000000000748, 5.839950000000374
11.690000000000747, 5.844950000000374
11.700000000000747, 5.849950000000374
11.710000000000747, 5.854950000000374
11.720000000000747, 5.8599500000003735
11.730000000000746, 5.864950000000373
11.740000000000746, 5.869950000000373
11.750000000000746, 5.874950000000373
11.760000000000746, 5.879950000000373
11.770000000000746, 5.884950000000373
11.780000000000745, 5.889950000000373
11.790000000000745, 5.894950000000373
11.800000000000745, 5.899950000000373
11.810000000000745, 5.9049500000003725
11.820000000000745, 5.909950000000372
11.830000000000744, 5.914950000000372
11.840000000000744, 5.919950000000372
11.850000000000744, 5.924950000000372
11.860000000000744, 5.929950000000372
11.870000000000744, 5.934950000000372
11.880000000000743, 5.939950000000372
11.890000000000743, 5.944950000000372
11.900000000000743, 5.9499500000003716
11.910000000000743, 5.9549500000003714
11.920000000000742, 5.959950000000371
11.930000000000742, 5.964950000000371
11.940000000000742, 5.969950000000371
11.950000000000742, 5.974950000000371
11.960000000000742, 5.979950000000371
11.970000000000741, 5.984950000000371
11.980000000000741, 5.989950000000371
11.990000000000741, 5.994950000000371
12.00000000000074, 5.9999500000003705
12.01000000000074, 6.00495000000037
12.02000000000074, 6.00995000000037
12.03000000000074, 6.01495000000037
12.04000000000074, 6.01995000000037
12.05000000000074, 6.02495000000037
12.06000000000074, 6.02995000000037
12.07000000000074, 6.03495000000037
12.080000000000739, 6.03995000000037
12.090000000000739, 6.0449500000003695
12.100000000000739, 6.049950000000369
12.110000000000738, 6.054950000000369
12.120000000000738, 6.059950000000369
12.130000000000738, 6.064950000000369
12.140000000000738, 6.069950000000369
12.150000000000738, 6.074950000000369
12.160000000000737, 6.079950000000369
12.170000000000737, 6.084950000000369
12.180000000000737, 6.089950000000369
12.190000000000737, 6.0949500000003685
12.200000000000736, 6.099950000000368
12.210000000000736, 6.104950000000368
12.220000000000736, 6.109950000000368
12.230000000000736, 6.114950000000368
12.240000000000736, 6.119950000000368
12.250000000000735, 6.124950000000368
12.260000000000735, 6.129950000000368
12.270000000000735, 6.134950000000368
12.280000000000735, 6.1399500000003675
12.290000000000735, 6.144950000000367
12.300000000000734, 6.149950000000367
12.310000000000734, 6.154950000000367
12.320000000000734, 6.159950000000367
12.330000000000734, 6.164950000000367
12.340000000000733, 6.169950000000367
12.350000000000733, 6.174950000000367
12.360000000000733, 6.179950000000367
12.370000000000733, 6.1849500000003665
12.380000000000733, 6.189950000000366
12.390000000000732, 6.194950000000366
12.400000000000732, 6.199950000000366
12.410000000000732, 6.204950000000366
12.420000000000732, 6.209950000000366
12.430000000000732, 6.214950000000366
12.440000000000731, 6.219950000000366
12.450000000000731, 6.224950000000366
12.460000000000731, 6.229950000000366
12.47000000000073, 6.2349500000003655
12.48000000000073, 6.239950000000365
12.49000000000073, 6.244950000000365
12.50000000000073, 6.249950000000365
12.51000000000073, 6.254950000000365
12.52000000000073, 6.259950000000365
12.53000000000073, 6.264950000000365
12.54000000000073, 6.269950000000365
12.550000000000729, 6.274950000000365
12.560000000000729, 6.2799500000003645
12.570000000000729, 6.284950000000364
12.580000000000728, 6.289950000000364
12.590000000000728, 6.294950000000364
12.600000000000728, 6.299950000000364
12.610000000000728, 6.304950000000364
12.620000000000728, 6.309950000000364
12.630000000000727, 6.314950000000364
12.640000000000727, 6.319950000000364
12.650000000000727, 6.324950000000364
12.660000000000727, 6.3299500000003635
12.670000000000726, 6.334950000000363
12.680000000000726, 6.339950000000363
12.690000000000726, 6.344950000000363
12.700000000000726, 6.349950000000363
12.710000000000726, 6.354950000000363
12.720000000000725, 6.359950000000363
12.730000000000725, 6.364950000000363
12.740000000000725, 6.369950000000363
12.750000000000725, 6.3749500000003625
12.760000000000725, 6.379950000000362
12.770000000000724, 6.384950000000362
12.780000000000724, 6.389950000000362
12.790000000000724, 6.394950000000362
12.800000000000724, 6.399950000000362
12.810000000000723, 6.404950000000362
12.820000000000723, 6.409950000000362
12.830000000000723, 6.414950000000362
12.840000000000723, 6.4199500000003615
12.850000000000723, 6.424950000000361
12.860000000000722, 6.429950000000361
12.870000000000722, 6.434950000000361
12.880000000000722, 6.439950000000361
12.890000000000722, 6.444950000000361
12.900000000000722, 6.449950000000361
12.910000000000721, 6.454950000000361
12.920000000000721, 6.459950000000361
12.930000000000721, 6.464950000000361
12.94000000000072, 6.4699500000003605
12.95000000000072, 6.47495000000036
12.96000000000072, 6.47995000000036
12.97000000000072, 6.48495000000036
12.98000000000072, 6.48995000000036
12.99000000000072, 6.49495000000036
13.00000000000072, 6.49995000000036
13.01000000000072, 6.50495000000036
13.020000000000719, 6.50995000000036
13.030000000000719, 6.5149500000003595
13.040000000000719, 6.519950000000359
13.050000000000718, 6.524950000000359
13.060000000000718, 6.529950000000359
13.070000000000718, 6.534950000000359
13.080000000000718, 6.539950000000359
13.090000000000718, 6.544950000000359
13.100000000000717, 6.549950000000359
13.110000000000717, 6.554950000000359
13.120000000000717, 6.5599500000003585
13.130000000000717, 6.564950000000358
13.140000000000716, 6.569950000000358
13.150000000000716, 6.574950000000358
13.160000000000716, 6.579950000000358
13.170000000000716, 6.584950000000358
13.180000000000716, 6.589950000000358
13.190000000000715, 6.594950000000358
13.200000000000715, 6.599950000000358
13.210000000000715, 6.604950000000358
13.220000000000715, 6.6099500000003575
13.230000000000715, 6.614950000000357
13.240000000000714, 6.619950000000357
13.250000000000714, 6.624950000000357
13.260000000000714, 6.629950000000357
13.270000000000714, 6.634950000000357
13.280000000000713, 6.639950000000357
13.290000000000713, 6.644950000000357
13.300000000000713, 6.649950000000357
13.310000000000713, 6.6549500000003565
13.320000000000713, 6.659950000000356
13.330000000000712, 6.664950000000356
13.340000000000712, 6.669950000000356
13.350000000000712, 6.674950000000356
13.360000000000712, 6.679950000000356
13.370000000000712, 6.684950000000356
13.380000000000711, 6.689950000000356
13.390000000000711, 6.694950000000356
13.400000000000711, 6.699950000000356
13.41000000000071, 6.7049500000003555
13.42000000000071, 6.709950000000355
13.43000000000071, 6.714950000000355
13.44000000000071, 6.719950000000355
13.45000000000071, 6.724950000000355
13.46000000000071, 6.729950000000355
13.47000000000071, 6.734950000000355
13.48000000000071, 6.739950000000355
13.490000000000709, 6.744950000000355
13.500000000000709, 6.7499500000003545
13.510000000000709, 6.754950000000354
13.520000000000708, 6.759950000000354
13.530000000000708, 6.764950000000354
13.540000000000708, 6.769950000000354
13.550000000000708, 6.774950000000354
13.560000000000707, 6.779950000000354
13.570000000000707, 6.784950000000354
13.580000000000707, 6.789950000000354
13.590000000000707, 6.7949500000003535
13.600000000000707, 6.799950000000353
13.610000000000706, 6.804950000000353
13.620000000000706, 6.809950000000353
13.630000000000706, 6.814950000000353
13.640000000000706, 6.819950000000353
13.650000000000706, 6.824950000000353
13.660000000000705, 6.829950000000353
13.670000000000705, 6.834950000000353
13.680000000000705, 6.839950000000353
13.690000000000705, 6.8449500000003525
13.700000000000705, 6.849950000000352
13.710000000000704, 6.854950000000352
13.720000000000704, 6.859950000000352
13.730000000000704, 6.864950000000352
13.740000000000704, 6.869950000000352
13.750000000000703, 6.874950000000352
13.760000000000703, 6.879950000000352
13.770000000000703, 6.884950000000352
13.780000000000703, 6.8899500000003515
13.790000000000703, 6.894950000000351
13.800000000000702, 6.899950000000351
13.810000000000702, 6.904950000000351
13.820000000000702, 6.909950000000351
13.830000000000702, 6.914950000000351
13.840000000000702, 6.919950000000351
13.850000000000701, 6.924950000000351
13.860000000000701, 6.929950000000351
13.8700000000007, 6.934950000000351
13.8800000000007, 6.9399500000003504
13.8900000000007, 6.94495000000035
13.9000000000007, 6.94995000000035
13.9100000000007, 6.95495000000035
13.9200000000007, 6.95995000000035
13.9300000000007, 6.96495000000035
13.9400000000007, 6.96995000000035
13.9500000000007, 6.97495000000035
13.960000000000699, 6.97995000000035
13.970000000000699, 6.9849500000003495
13.980000000000699, 6.989950000000349
13.990000000000698, 6.994950000000349
14.000000000000698, 6.999950000000349
14.010000000000698, 7.004950000000349
14.020000000000698, 7.009950000000349
14.030000000000697, 7.014950000000349
14.040000000000697, 7.019950000000349
14.050000000000697, 7.024950000000349
14.060000000000697, 7.0299500000003485
14.070000000000697, 7.034950000000348
14.080000000000696, 7.039950000000348
14.090000000000696, 7.044950000000348
14.100000000000696, 7.049950000000348
14.110000000000696, 7.054950000000348
14.120000000000696, 7.059950000000348
14.130000000000695, 7.064950000000348
14.140000000000695, 7.069950000000348
14.150000000000695, 7.074950000000348
14.160000000000695, 7.0799500000003475
14.170000000000694, 7.084950000000347
14.180000000000694, 7.089950000000347
14.190000000000694, 7.094950000000347
14.200000000000694, 7.099950000000347
14.210000000000694, 7.104950000000347
14.220000000000693, 7.109950000000347
14.230000000000693, 7.114950000000347
14.240000000000693, 7.119950000000347
14.250000000000693, 7.1249500000003465
14.260000000000693, 7.129950000000346
14.270000000000692, 7.134950000000346
14.280000000000692, 7.139950000000346
14.290000000000692, 7.144950000000346
14.300000000000692, 7.149950000000346
14.310000000000692, 7.154950000000346
14.320000000000691, 7.159950000000346
14.330000000000691, 7.164950000000346
14.34000000000069, 7.1699500000003455
14.35000000000069, 7.174950000000345
14.36000000000069, 7.179950000000345
14.37000000000069, 7.184950000000345
14.38000000000069, 7.189950000000345
14.39000000000069, 7.194950000000345
14.40000000000069, 7.199950000000345
14.41000000000069, 7.204950000000345
14.42000000000069, 7.209950000000345
14.430000000000689, 7.214950000000345
14.440000000000689, 7.2199500000003445
14.450000000000689, 7.224950000000344
14.460000000000688, 7.229950000000344
14.470000000000688, 7.234950000000344
14.480000000000688, 7.239950000000344
14.490000000000688, 7.244950000000344
14.500000000000687, 7.249950000000344
14.510000000000687, 7.254950000000344
14.520000000000687, 7.259950000000344
14.530000000000687, 7.2649500000003435
14.540000000000687, 7.269950000000343
14.550000000000686, 7.274950000000343
14.560000000000686, 7.279950000000343
14.570000000000686, 7.284950000000343
14.580000000000686, 7.289950000000343
14.590000000000686, 7.294950000000343
14.600000000000685, 7.299950000000343
14.610000000000685, 7.304950000000343
14.620000000000685, 7.309950000000343
14.630000000000685, 7.3149500000003425
14.640000000000684, 7.319950000000342
14.650000000000684, 7.324950000000342
14.660000000000684, 7.329950000000342
14.670000000000684, 7.334950000000342
14.680000000000684, 7.339950000000342
14.690000000000683, 7.344950000000342
14.700000000000683, 7.349950000000342
14.710000000000683, 7.354950000000342
14.720000000000683, 7.3599500000003415
14.730000000000683, 7.364950000000341
14.740000000000682, 7.369950000000341
14.750000000000682, 7.374950000000341
14.760000000000682, 7.379950000000341
14.770000000000682, 7.384950000000341
14.780000000000681, 7.389950000000341
14.790000000000681, 7.394950000000341
14.800000000000681, 7.399950000000341
14.81000000000068, 7.4049500000003405
14.82000000000068, 7.40995000000034
14.83000000000068, 7.41495000000034
14.84000000000068, 7.41995000000034
14.85000000000068, 7.42495000000034
14.86000000000068, 7.42995000000034
14.87000000000068, 7.43495000000034
14.88000000000068, 7.43995000000034
14.89000000000068, 7.44495000000034
14.900000000000679, 7.44995000000034
14.910000000000679, 7.4549500000003395
14.920000000000678, 7.459950000000339
14.930000000000678, 7.464950000000339
14.940000000000678, 7.469950000000339
14.950000000000678, 7.474950000000339
14.960000000000678, 7.479950000000339
14.970000000000677, 7.484950000000339
14.980000000000677, 7.489950000000339
14.990000000000677, 7.494950000000339
15.000000000000677, 7.4999500000003385
15.010000000000677, 7.504950000000338
15.020000000000676, 7.509950000000338
15.030000000000676, 7.514950000000338
15.040000000000676, 7.519950000000338
15.050000000000676, 7.524950000000338
15.060000000000676, 7.529950000000338
15.070000000000675, 7.534950000000338
15.080000000000675, 7.539950000000338
15.090000000000675, 7.5449500000003376
15.100000000000675, 7.5499500000003374
15.110000000000674, 7.554950000000337
15.120000000000674, 7.559950000000337
15.130000000000674, 7.564950000000337
15.140000000000674, 7.569950000000337
15.150000000000674, 7.574950000000337
15.160000000000673, 7.579950000000337
15.170000000000673, 7.584950000000337
15.180000000000673, 7.589950000000337
15.190000000000673, 7.5949500000003365
15.200000000000673, 7.599950000000336
15.210000000000672, 7.604950000000336
15.220000000000672, 7.609950000000336
15.230000000000672, 7.614950000000336
15.240000000000672, 7.619950000000336
15.250000000000671, 7.624950000000336
15.260000000000671, 7.629950000000336
15.270000000000671, 7.634950000000336
15.28000000000067, 7.6399500000003355
15.29000000000067, 7.644950000000335
15.30000000000067, 7.649950000000335
15.31000000000067, 7.654950000000335
15.32000000000067, 7.659950000000335
15.33000000000067, 7.664950000000335
15.34000000000067, 7.669950000000335
15.35000000000067, 7.674950000000335
15.36000000000067, 7.679950000000335
15.370000000000669, 7.684950000000335
15.380000000000669, 7.6899500000003345
15.390000000000668, 7.694950000000334
15.400000000000668, 7.699950000000334
15.410000000000668, 7.704950000000334
15.420000000000668, 7.709950000000334
15.430000000000668, 7.714950000000334
15.440000000000667, 7.719950000000334
15.450000000000667, 7.724950000000334
15.460000000000667, 7.729950000000334
15.470000000000667, 7.7349500000003335
15.480000000000667, 7.739950000000333
15.490000000000666, 7.744950000000333
15.500000000000666, 7.749950000000333
15.510000000000666, 7.754950000000333
15.520000000000666, 7.759950000000333
15.530000000000665, 7.764950000000333
15.540000000000665, 7.769950000000333
15.550000000000665, 7.774950000000333
15.560000000000665, 7.7799500000003325
15.570000000000665, 7.784950000000332
15.580000000000664, 7.789950000000332
15.590000000000664, 7.794950000000332
15.600000000000664, 7.799950000000332
15.610000000000664, 7.804950000000332
15.620000000000664, 7.809950000000332
15.630000000000663, 7.814950000000332
15.640000000000663, 7.819950000000332
15.650000000000663, 7.824950000000332
15.660000000000663, 7.8299500000003315
15.670000000000663, 7.834950000000331
15.680000000000662, 7.839950000000331
15.690000000000662, 7.844950000000331
15.700000000000662, 7.849950000000331
15.710000000000662, 7.854950000000331
15.720000000000661, 7.859950000000331
15.730000000000661, 7.864950000000331
15.740000000000661, 7.869950000000331
15.75000000000066, 7.8749500000003305
15.76000000000066, 7.87995000000033
15.77000000000066, 7.88495000000033
15.78000000000066, 7.88995000000033
15.79000000000066, 7.89495000000033
15.80000000000066, 7.89995000000033
15.81000000000066, 7.90495000000033
15.82000000000066, 7.90995000000033
15.830000000000659, 7.91495000000033
15.840000000000659, 7.91995000000033
15.850000000000659, 7.9249500000003295
15.860000000000658, 7.929950000000329
15.870000000000658, 7.934950000000329
15.880000000000658, 7.939950000000329
15.890000000000658, 7.944950000000329
15.900000000000658, 7.949950000000329
15.910000000000657, 7.954950000000329
15.920000000000657, 7.959950000000329
15.930000000000657, 7.964950000000329
15.940000000000657, 7.9699500000003285
15.950000000000657, 7.974950000000328
15.960000000000656, 7.979950000000328
15.970000000000656, 7.984950000000328
15.980000000000656, 7.989950000000328
15.990000000000656, 7.994950000000328
16.000000000000657, 7.999950000000329
16.01000000000066, 8.00495000000033
16.02000000000066, 8.00995000000033
16.030000000000662, 8.014950000000331
16.040000000000664, 8.019950000000332
16.050000000000665, 8.024950000000333
16.060000000000667, 8.029950000000333
16.070000000000668, 8.034950000000334
16.08000000000067, 8.039950000000335
16.09000000000067, 8.044950000000336
16.100000000000673, 8.049950000000337
16.110000000000674, 8.054950000000337
16.120000000000676, 8.059950000000338
16.130000000000678, 8.064950000000339
16.14000000000068, 8.06995000000034
16.15000000000068, 8.07495000000034
16.160000000000682, 8.079950000000341
16.170000000000684, 8.084950000000342
16.180000000000685, 8.089950000000343
16.190000000000687, 8.094950000000344
16.20000000000069, 8.099950000000344
16.21000000000069, 8.104950000000345
16.22000000000069, 8.109950000000346
16.230000000000693, 8.114950000000347
16.240000000000695, 8.119950000000348
16.250000000000696, 8.124950000000348
16.260000000000698, 8.129950000000349
16.2700000000007, 8.13495000000035
16.2800000000007, 8.13995000000035
16.290000000000703, 8.144950000000351
16.300000000000704, 8.149950000000352
16.310000000000706, 8.154950000000353
16.320000000000707, 8.159950000000354
16.33000000000071, 8.164950000000355
16.34000000000071, 8.169950000000355
16.350000000000712, 8.174950000000356
16.360000000000714, 8.179950000000357
16.370000000000715, 8.184950000000358
16.380000000000717, 8.189950000000358
16.390000000000718, 8.19495000000036
16.40000000000072, 8.19995000000036
16.41000000000072, 8.20495000000036
16.420000000000723, 8.209950000000362
16.430000000000724, 8.214950000000362
16.440000000000726, 8.219950000000363
16.450000000000728, 8.224950000000364
16.46000000000073, 8.229950000000365
16.47000000000073, 8.234950000000365
16.480000000000732, 8.239950000000366
16.490000000000734, 8.244950000000367
16.500000000000735, 8.249950000000368
16.510000000000737, 8.254950000000369
16.52000000000074, 8.25995000000037
16.53000000000074, 8.26495000000037
16.54000000000074, 8.269950000000371
16.550000000000743, 8.274950000000372
16.560000000000745, 8.279950000000373
16.570000000000746, 8.284950000000373
16.580000000000748, 8.289950000000374
16.59000000000075, 8.294950000000375
16.60000000000075, 8.299950000000376
16.610000000000753, 8.304950000000376
16.620000000000754, 8.309950000000377
16.630000000000756, 8.314950000000378
16.640000000000757, 8.319950000000379
16.65000000000076, 8.32495000000038
16.66000000000076, 8.32995000000038
16.670000000000762, 8.334950000000381
16.680000000000764, 8.339950000000382
16.690000000000765, 8.344950000000383
16.700000000000767, 8.349950000000383
16.71000000000077, 8.354950000000384
16.72000000000077, 8.359950000000385
16.73000000000077, 8.364950000000386
16.740000000000773, 8.369950000000387
16.750000000000774, 8.374950000000387
16.760000000000776, 8.379950000000388
16.770000000000778, 8.384950000000389
16.78000000000078, 8.38995000000039
16.79000000000078, 8.39495000000039
16.800000000000782, 8.399950000000391
16.810000000000784, 8.404950000000392
16.820000000000785, 8.409950000000393
16.830000000000787, 8.414950000000394
16.84000000000079, 8.419950000000394
16.85000000000079, 8.424950000000395
16.86000000000079, 8.429950000000396
16.870000000000793, 8.434950000000397
16.880000000000795, 8.439950000000398
16.890000000000796, 8.444950000000398
16.900000000000798, 8.449950000000399
16.9100000000008, 8.4549500000004
16.9200000000008, 8.4599500000004
16.930000000000803, 8.464950000000401
16.940000000000804, 8.469950000000402
16.950000000000806, 8.474950000000403
16.960000000000807, 8.479950000000404
16.97000000000081, 8.484950000000405
16.98000000000081, 8.489950000000405
16.990000000000812, 8.494950000000406
17.000000000000814, 8.499950000000407
17.010000000000815, 8.504950000000408
17.020000000000817, 8.509950000000408
17.03000000000082, 8.51495000000041
17.04000000000082, 8.51995000000041
17.05000000000082, 8.52495000000041
17.060000000000823, 8.529950000000412
17.070000000000825, 8.534950000000412
17.080000000000826, 8.539950000000413
17.090000000000828, 8.544950000000414
17.10000000000083, 8.549950000000415
17.11000000000083, 8.554950000000415
17.120000000000832, 8.559950000000416
17.130000000000834, 8.564950000000417
17.140000000000835, 8.569950000000418
17.150000000000837, 8.574950000000419
17.16000000000084, 8.57995000000042
17.17000000000084, 8.58495000000042
17.18000000000084, 8.589950000000421
17.190000000000843, 8.594950000000422
17.200000000000845, 8.599950000000423
17.210000000000846, 8.604950000000423
17.220000000000848, 8.609950000000424
17.23000000000085, 8.614950000000425
17.24000000000085, 8.619950000000426
17.250000000000853, 8.624950000000426
17.260000000000854, 8.629950000000427
17.270000000000856, 8.634950000000428
17.280000000000857, 8.639950000000429
17.29000000000086, 8.64495000000043
17.30000000000086, 8.64995000000043
17.310000000000862, 8.654950000000431
17.320000000000864, 8.659950000000432
17.330000000000865, 8.664950000000433
17.340000000000867, 8.669950000000433
17.35000000000087, 8.674950000000434
17.36000000000087, 8.679950000000435
17.37000000000087, 8.684950000000436
17.380000000000873, 8.689950000000437
17.390000000000875, 8.694950000000437
17.400000000000876, 8.699950000000438
17.410000000000878, 8.704950000000439
17.42000000000088, 8.70995000000044
17.43000000000088, 8.71495000000044
17.440000000000882, 8.719950000000441
17.450000000000884, 8.724950000000442
17.460000000000885, 8.729950000000443
17.470000000000887, 8.734950000000444
17.48000000000089, 8.739950000000444
17.49000000000089, 8.744950000000445
17.50000000000089, 8.749950000000446
17.510000000000893, 8.754950000000447
17.520000000000895, 8.759950000000448
17.530000000000896, 8.764950000000448
17.540000000000898, 8.769950000000449
17.5500000000009, 8.77495000000045
17.5600000000009, 8.77995000000045
17.570000000000903, 8.784950000000451
17.580000000000904, 8.789950000000452
17.590000000000906, 8.794950000000453
17.600000000000907, 8.799950000000454
17.61000000000091, 8.804950000000455
17.62000000000091, 8.809950000000455
17.630000000000912, 8.814950000000456
17.640000000000914, 8.819950000000457
17.650000000000915, 8.824950000000458
17.660000000000917, 8.829950000000458
17.67000000000092, 8.83495000000046
17.68000000000092, 8.83995000000046
17.69000000000092, 8.84495000000046
17.700000000000923, 8.849950000000462
17.710000000000925, 8.854950000000462
17.720000000000926, 8.859950000000463
17.730000000000928, 8.864950000000464
17.74000000000093, 8.869950000000465
17.75000000000093, 8.874950000000466
17.760000000000932, 8.879950000000466
17.770000000000934, 8.884950000000467
17.780000000000936, 8.889950000000468
17.790000000000937, 8.894950000000469
17.80000000000094, 8.89995000000047
17.81000000000094, 8.90495000000047
17.82000000000094, 8.909950000000471
17.830000000000943, 8.914950000000472
17.840000000000945, 8.919950000000473
17.850000000000946, 8.924950000000473
17.860000000000948, 8.929950000000474
17.87000000000095, 8.934950000000475
17.88000000000095, 8.939950000000476
17.890000000000953, 8.944950000000476
17.900000000000954, 8.949950000000477
17.910000000000956, 8.954950000000478
17.920000000000957, 8.959950000000479
17.93000000000096, 8.96495000000048
17.94000000000096, 8.96995000000048
17.950000000000962, 8.974950000000481
17.960000000000964, 8.979950000000482
17.970000000000965, 8.984950000000483
17.980000000000967, 8.989950000000483
17.99000000000097, 8.994950000000484
18.00000000000097, 8.999950000000485
18.01000000000097, 9.004950000000486
18.020000000000973, 9.009950000000487
18.030000000000975, 9.014950000000487
18.040000000000976, 9.019950000000488
18.050000000000978, 9.024950000000489
18.06000000000098, 9.02995000000049
18.07000000000098, 9.03495000000049
18.080000000000982, 9.039950000000491
18.090000000000984, 9.044950000000492
18.100000000000986, 9.049950000000493
18.110000000000987, 9.054950000000494
18.12000000000099, 9.059950000000494
18.13000000000099, 9.064950000000495
18.14000000000099, 9.069950000000496
18.150000000000993, 9.074950000000497
18.160000000000995, 9.079950000000498
18.170000000000996, 9.084950000000498
18.180000000000998, 9.0899500000005
18.190000000001, 9.0949500000005
18.200000000001, 9.0999500000005
18.210000000001003, 9.104950000000501
18.220000000001004, 9.109950000000502
18.230000000001006, 9.114950000000503
18.240000000001007, 9.119950000000504
18.25000000000101, 9.124950000000505
18.26000000000101, 9.129950000000505
18.270000000001012, 9.134950000000506
18.280000000001014, 9.139950000000507
18.290000000001015, 9.144950000000508
18.300000000001017, 9.149950000000509
18.31000000000102, 9.15495000000051
18.32000000000102, 9.15995000000051
18.33000000000102, 9.16495000000051
18.340000000001023, 9.169950000000512
18.350000000001025, 9.174950000000512
18.360000000001026, 9.179950000000513
18.370000000001028, 9.184950000000514
18.38000000000103, 9.189950000000515
18.39000000000103, 9.194950000000516
18.400000000001032, 9.199950000000516
18.410000000001034, 9.204950000000517
18.420000000001036, 9.209950000000518
18.430000000001037, 9.214950000000519
18.44000000000104, 9.21995000000052
18.45000000000104, 9.22495000000052
18.460000000001042, 9.229950000000521
18.470000000001043, 9.234950000000522
18.480000000001045, 9.239950000000523
18.490000000001046, 9.244950000000523
18.500000000001048, 9.249950000000524
18.51000000000105, 9.254950000000525
18.52000000000105, 9.259950000000526
18.530000000001053, 9.264950000000526
18.540000000001054, 9.269950000000527
18.550000000001056, 9.274950000000528
18.560000000001057, 9.279950000000529
18.57000000000106, 9.28495000000053
18.58000000000106, 9.28995000000053
18.590000000001062, 9.294950000000531
18.600000000001064, 9.299950000000532
18.610000000001065, 9.304950000000533
18.620000000001067, 9.309950000000534
18.63000000000107, 9.314950000000534
18.64000000000107, 9.319950000000535
18.65000000000107, 9.324950000000536
18.660000000001073, 9.329950000000537
18.670000000001075, 9.334950000000537
18.680000000001076, 9.339950000000538
18.690000000001078, 9.344950000000539
18.70000000000108, 9.34995000000054
18.71000000000108, 9.35495000000054
18.720000000001082, 9.359950000000541
18.730000000001084, 9.364950000000542
18.740000000001086, 9.369950000000543
18.750000000001087, 9.374950000000544
18.76000000000109, 9.379950000000544
18.77000000000109, 9.384950000000545
18.780000000001092, 9.389950000000546
18.790000000001093, 9.394950000000547
18.800000000001095, 9.399950000000548
18.810000000001097, 9.404950000000548
18.820000000001098, 9.40995000000055
18.8300000000011, 9.41495000000055
18.8400000000011, 9.41995000000055
18.850000000001103, 9.424950000000551
18.860000000001104, 9.429950000000552
18.870000000001106, 9.434950000000553
18.880000000001107, 9.439950000000554
18.89000000000111, 9.444950000000555
18.90000000000111, 9.449950000000555
18.910000000001112, 9.454950000000556
18.920000000001114, 9.459950000000557
18.930000000001115, 9.464950000000558
18.940000000001117, 9.469950000000559
18.95000000000112, 9.47495000000056
18.96000000000112, 9.47995000000056
18.97000000000112, 9.48495000000056
18.980000000001123, 9.489950000000562
18.990000000001125, 9.494950000000562
19.000000000001126, 9.499950000000563
19.010000000001128, 9.504950000000564
19.02000000000113, 9.509950000000565
19.03000000000113, 9.514950000000566
19.040000000001132, 9.519950000000566
19.050000000001134, 9.524950000000567
19.060000000001136, 9.529950000000568
19.070000000001137, 9.534950000000569
19.08000000000114, 9.53995000000057
19.09000000000114, 9.54495000000057
19.100000000001142, 9.549950000000571
19.110000000001143, 9.554950000000572
19.120000000001145, 9.559950000000573
19.130000000001147, 9.564950000000573
19.140000000001148, 9.569950000000574
19.15000000000115, 9.574950000000575
19.16000000000115, 9.579950000000576
19.170000000001153, 9.584950000000577
19.180000000001154, 9.589950000000577
19.190000000001156, 9.594950000000578
19.200000000001157, 9.599950000000579
19.21000000000116, 9.60495000000058
19.22000000000116, 9.60995000000058
19.230000000001162, 9.614950000000581
19.240000000001164, 9.619950000000582
19.250000000001165, 9.624950000000583
19.260000000001167, 9.629950000000584
19.27000000000117, 9.634950000000584
19.28000000000117, 9.639950000000585
19.29000000000117, 9.644950000000586
19.300000000001173, 9.649950000000587
19.310000000001175, 9.654950000000587
19.320000000001176, 9.659950000000588
19.330000000001178, 9.664950000000589
19.34000000000118, 9.66995000000059
19.35000000000118, 9.67495000000059
19.360000000001182, 9.679950000000591
19.370000000001184, 9.684950000000592
19.380000000001186, 9.689950000000593
19.390000000001187, 9.694950000000594
19.40000000000119, 9.699950000000594
19.41000000000119, 9.704950000000595
19.420000000001192, 9.709950000000596
19.430000000001193, 9.714950000000597
19.440000000001195, 9.719950000000598
19.450000000001197, 9.724950000000598
19.460000000001198, 9.7299500000006
19.4700000000012, 9.7349500000006
19.4800000000012, 9.7399500000006
19.490000000001203, 9.744950000000602
19.500000000001204, 9.749950000000602
19.510000000001206, 9.754950000000603
19.520000000001207, 9.759950000000604
19.53000000000121, 9.764950000000605
19.54000000000121, 9.769950000000605
19.550000000001212, 9.774950000000606
19.560000000001214, 9.779950000000607
19.570000000001215, 9.784950000000608
19.580000000001217, 9.789950000000609
19.59000000000122, 9.79495000000061
19.60000000000122, 9.79995000000061
19.61000000000122, 9.804950000000611
19.620000000001223, 9.809950000000612
19.630000000001225, 9.814950000000612
19.640000000001226, 9.819950000000613
19.650000000001228, 9.824950000000614
19.66000000000123, 9.829950000000615
19.67000000000123, 9.834950000000616
19.680000000001233, 9.839950000000616
19.690000000001234, 9.844950000000617
19.700000000001236, 9.849950000000618
19.710000000001237, 9.854950000000619
19.72000000000124, 9.85995000000062
19.73000000000124, 9.86495000000062
19.740000000001242, 9.869950000000621
19.750000000001243, 9.874950000000622
19.760000000001245, 9.879950000000623
19.770000000001247, 9.884950000000623
19.780000000001248, 9.889950000000624
19.79000000000125, 9.894950000000625
19.80000000000125, 9.899950000000626
19.810000000001253, 9.904950000000627
19.820000000001254, 9.909950000000627
19.830000000001256, 9.914950000000628
19.840000000001258, 9.919950000000629
19.85000000000126, 9.92495000000063
19.86000000000126, 9.92995000000063
19.870000000001262, 9.934950000000631
19.880000000001264, 9.939950000000632
19.890000000001265, 9.944950000000633
19.900000000001267, 9.949950000000634
19.91000000000127, 9.954950000000634
19.92000000000127, 9.959950000000635
19.93000000000127, 9.964950000000636
19.940000000001273, 9.969950000000637
19.950000000001275, 9.974950000000637
19.960000000001276, 9.979950000000638
19.970000000001278, 9.984950000000639
19.98000000000128, 9.98995000000064
19.99000000000128, 9.99495000000064
20.000000000001283, 9.999950000000641
20.010000000001284, 10.004950000000642
20.020000000001286, 10.009950000000643
20.030000000001287, 10.014950000000644
20.04000000000129, 10.019950000000645
20.05000000000129, 10.024950000000645
20.060000000001292, 10.029950000000646
20.070000000001293, 10.034950000000647
20.080000000001295, 10.039950000000648
20.090000000001297, 10.044950000000648
20.100000000001298, 10.04995000000065
20.1100000000013, 10.05495000000065
20.1200000000013, 10.05995000000065
20.130000000001303, 10.064950000000652
20.140000000001304, 10.069950000000652
20.150000000001306, 10.074950000000653
20.160000000001308, 10.079950000000654
20.17000000000131, 10.084950000000655
20.18000000000131, 10.089950000000655
20.190000000001312, 10.094950000000656
20.200000000001314, 10.099950000000657
20.210000000001315, 10.104950000000658
20.220000000001317, 10.109950000000659
20.23000000000132, 10.11495000000066
20.24000000000132, 10.11995000000066
20.25000000000132, 10.124950000000661
20.260000000001323, 10.129950000000662
20.270000000001325, 10.134950000000662
20.280000000001326, 10.139950000000663
20.290000000001328, 10.144950000000664
20.30000000000133, 10.149950000000665
20.31000000000133, 10.154950000000666
20.320000000001333, 10.159950000000666
20.330000000001334, 10.164950000000667
20.340000000001336, 10.169950000000668
20.350000000001337, 10.174950000000669
20.36000000000134, 10.17995000000067
20.37000000000134, 10.18495000000067
20.380000000001342, 10.189950000000671
20.390000000001343, 10.194950000000672
20.400000000001345, 10.199950000000673
20.410000000001347, 10.204950000000673
20.420000000001348, 10.209950000000674
20.43000000000135, 10.214950000000675
20.44000000000135, 10.219950000000676
20.450000000001353, 10.224950000000677
20.460000000001354, 10.229950000000677
20.470000000001356, 10.234950000000678
20.480000000001358, 10.239950000000679
20.49000000000136, 10.24495000000068
20.50000000000136, 10.24995000000068
20.510000000001362, 10.254950000000681
20.520000000001364, 10.259950000000682
20.530000000001365, 10.264950000000683
20.540000000001367, 10.269950000000684
20.55000000000137, 10.274950000000684
20.56000000000137, 10.279950000000685
20.57000000000137, 10.284950000000686
20.580000000001373, 10.289950000000687
20.590000000001375, 10.294950000000687
20.600000000001376, 10.299950000000688
20.610000000001378, 10.304950000000689
20.62000000000138, 10.30995000000069
20.63000000000138, 10.31495000000069
20.640000000001383, 10.319950000000691
20.650000000001384, 10.324950000000692
20.660000000001386, 10.329950000000693
20.670000000001387, 10.334950000000694
20.68000000000139, 10.339950000000695
20.69000000000139, 10.344950000000695
20.700000000001392, 10.349950000000696
20.710000000001394, 10.354950000000697
20.720000000001395, 10.359950000000698
20.730000000001397, 10.364950000000698
20.740000000001398, 10.3699500000007
20.7500000000014, 10.3749500000007
20.7600000000014, 10.3799500000007
20.770000000001403, 10.384950000000702
20.780000000001404, 10.389950000000702
20.790000000001406, 10.394950000000703
20.800000000001408, 10.399950000000704
20.81000000000141, 10.404950000000705
20.82000000000141, 10.409950000000705
20.830000000001412, 10.414950000000706
20.840000000001414, 10.419950000000707
20.850000000001415, 10.424950000000708
20.860000000001417, 10.429950000000709
20.87000000000142, 10.43495000000071
20.88000000000142, 10.43995000000071
20.89000000000142, 10.444950000000711
20.900000000001423, 10.449950000000712
20.910000000001425, 10.454950000000713
20.920000000001426, 10.459950000000713
20.930000000001428, 10.464950000000714
20.94000000000143, 10.469950000000715
20.95000000000143, 10.474950000000716
20.960000000001433, 10.479950000000716
20.970000000001434, 10.484950000000717
20.980000000001436, 10.489950000000718
20.990000000001437, 10.494950000000719
21.00000000000144, 10.49995000000072
21.01000000000144, 10.50495000000072
21.020000000001442, 10.509950000000721
21.030000000001444, 10.514950000000722
21.040000000001445, 10.519950000000723
21.050000000001447, 10.524950000000723
21.06000000000145, 10.529950000000724
21.07000000000145, 10.534950000000725
21.08000000000145, 10.539950000000726
21.090000000001453, 10.544950000000727
21.100000000001454, 10.549950000000727
21.110000000001456, 10.554950000000728
21.120000000001458, 10.559950000000729
21.13000000000146, 10.56495000000073
21.14000000000146, 10.56995000000073
21.150000000001462, 10.574950000000731
21.160000000001464, 10.579950000000732
21.170000000001465, 10.584950000000733
21.180000000001467, 10.589950000000734
21.19000000000147, 10.594950000000734
21.20000000000147, 10.599950000000735
21.21000000000147, 10.604950000000736
21.220000000001473, 10.609950000000737
21.230000000001475, 10.614950000000738
21.240000000001476, 10.619950000000738
21.250000000001478, 10.624950000000739
21.26000000000148, 10.62995000000074
21.27000000000148, 10.63495000000074
21.280000000001483, 10.639950000000741
21.290000000001484, 10.644950000000742
21.300000000001486, 10.649950000000743
21.310000000001487, 10.654950000000744
21.32000000000149, 10.659950000000745
21.33000000000149, 10.664950000000745
21.340000000001492, 10.669950000000746
21.350000000001494, 10.674950000000747
21.360000000001495, 10.679950000000748
21.370000000001497, 10.684950000000748
21.3800000000015, 10.68995000000075
21.3900000000015, 10.69495000000075
21.4000000000015, 10.69995000000075
21.410000000001503, 10.704950000000752
21.420000000001505, 10.709950000000752
21.430000000001506, 10.714950000000753
21.440000000001508, 10.719950000000754
21.45000000000151, 10.724950000000755
21.46000000000151, 10.729950000000755
21.470000000001512, 10.734950000000756
21.480000000001514, 10.739950000000757
21.490000000001515, 10.744950000000758
21.500000000001517, 10.749950000000759
21.51000000000152, 10.75495000000076
21.52000000000152, 10.75995000000076
21.53000000000152, 10.764950000000761
21.540000000001523, 10.769950000000762
21.550000000001525, 10.774950000000763
21.560000000001526, 10.779950000000763
21.570000000001528, 10.784950000000764
21.58000000000153, 10.789950000000765
21.59000000000153, 10.794950000000766
21.600000000001533, 10.799950000000766
21.610000000001534, 10.804950000000767
21.620000000001536, 10.809950000000768
21.630000000001537, 10.814950000000769
21.64000000000154, 10.81995000000077
21.65000000000154, 10.82495000000077
21.660000000001542, 10.829950000000771
21.670000000001544, 10.834950000000772
21.680000000001545, 10.839950000000773
21.690000000001547, 10.844950000000773
21.70000000000155, 10.849950000000774
21.71000000000155, 10.854950000000775
21.72000000000155, 10.859950000000776
21.730000000001553, 10.864950000000777
21.740000000001555, 10.869950000000777
21.750000000001556, 10.874950000000778
21.760000000001558, 10.879950000000779
21.77000000000156, 10.88495000000078
21.78000000000156, 10.88995000000078
21.790000000001562, 10.894950000000781
21.800000000001564, 10.899950000000782
21.810000000001565, 10.904950000000783
21.820000000001567, 10.909950000000784
21.83000000000157, 10.914950000000784
21.84000000000157, 10.919950000000785
21.85000000000157, 10.924950000000786
21.860000000001573, 10.929950000000787
21.870000000001575, 10.934950000000788
21.880000000001576, 10.939950000000788
21.890000000001578, 10.944950000000789
21.90000000000158, 10.94995000000079
21.91000000000158, 10.95495000000079
21.920000000001583, 10.959950000000791
21.930000000001584, 10.964950000000792
21.940000000001586, 10.969950000000793
21.950000000001587, 10.974950000000794
21.96000000000159, 10.979950000000795
21.97000000000159, 10.984950000000795
21.980000000001592, 10.989950000000796
21.990000000001594, 10.994950000000797
22.000000000001595, 10.999950000000798
22.010000000001597, 11.004950000000798
22.0200000000016, 11.0099500000008
22.0300000000016, 11.0149500000008
22.0400000000016, 11.0199500000008
22.050000000001603, 11.024950000000802
22.060000000001605, 11.029950000000802
22.070000000001606, 11.034950000000803
22.080000000001608, 11.039950000000804
22.09000000000161, 11.044950000000805
22.10000000000161, 11.049950000000806
22.110000000001612, 11.054950000000806
22.120000000001614, 11.059950000000807
22.130000000001615, 11.064950000000808
22.140000000001617, 11.069950000000809
22.15000000000162, 11.07495000000081
22.16000000000162, 11.07995000000081
22.17000000000162, 11.084950000000811
22.180000000001623, 11.089950000000812
22.190000000001625, 11.094950000000813
22.200000000001626, 11.099950000000813
22.210000000001628, 11.104950000000814
22.22000000000163, 11.109950000000815
22.23000000000163, 11.114950000000816
22.240000000001633, 11.119950000000816
22.250000000001634, 11.124950000000817
22.260000000001636, 11.129950000000818
22.270000000001637, 11.134950000000819
22.28000000000164, 11.13995000000082
22.29000000000164, 11.14495000000082
22.300000000001642, 11.149950000000821
22.310000000001644, 11.154950000000822
22.320000000001645, 11.159950000000823
22.330000000001647, 11.164950000000823
22.34000000000165, 11.169950000000824
22.35000000000165, 11.174950000000825
22.36000000000165, 11.179950000000826
22.370000000001653, 11.184950000000827
22.380000000001655, 11.189950000000827
22.390000000001656, 11.194950000000828
22.400000000001658, 11.199950000000829
22.41000000000166, 11.20495000000083
22.42000000000166, 11.20995000000083
22.430000000001662, 11.214950000000831
22.440000000001664, 11.219950000000832
22.450000000001666, 11.224950000000833
22.460000000001667, 11.229950000000834
22.47000000000167, 11.234950000000834
22.48000000000167, 11.239950000000835
22.49000000000167, 11.244950000000836
22.500000000001673, 11.249950000000837
22.510000000001675, 11.254950000000838
22.520000000001676, 11.259950000000838
22.530000000001678, 11.26495000000084
22.54000000000168, 11.26995000000084
22.55000000000168, 11.27495000000084
22.560000000001683, 11.279950000000841
22.570000000001684, 11.284950000000842
22.580000000001686, 11.289950000000843
22.590000000001687, 11.294950000000844
22.60000000000169, 11.299950000000845
22.61000000000169, 11.304950000000845
22.620000000001692, 11.309950000000846
22.630000000001694, 11.314950000000847
22.640000000001695, 11.319950000000848
22.650000000001697, 11.324950000000849
22.6600000000017, 11.32995000000085
22.6700000000017, 11.33495000000085
22.6800000000017, 11.33995000000085
22.690000000001703, 11.344950000000852
22.700000000001705, 11.349950000000852
22.710000000001706, 11.354950000000853
22.720000000001708, 11.359950000000854
22.73000000000171, 11.364950000000855
22.74000000000171, 11.369950000000856
22.750000000001712, 11.374950000000856
22.760000000001714, 11.379950000000857
22.770000000001716, 11.384950000000858
22.780000000001717, 11.389950000000859
22.79000000000172, 11.39495000000086
22.80000000000172, 11.39995000000086
22.810000000001722, 11.404950000000861
22.820000000001723, 11.409950000000862
22.830000000001725, 11.414950000000863
22.840000000001726, 11.419950000000863
22.850000000001728, 11.424950000000864
22.86000000000173, 11.429950000000865
22.87000000000173, 11.434950000000866
22.880000000001733, 11.439950000000866
22.890000000001734, 11.444950000000867
22.900000000001736, 11.449950000000868
22.910000000001737, 11.454950000000869
22.92000000000174, 11.45995000000087
22.93000000000174, 11.46495000000087
22.940000000001742, 11.469950000000871
22.950000000001744, 11.474950000000872
22.960000000001745, 11.479950000000873
22.970000000001747, 11.484950000000874
22.98000000000175, 11.489950000000874
22.99000000000175, 11.494950000000875
23.00000000000175, 11.499950000000876
23.010000000001753, 11.504950000000877
23.020000000001755, 11.509950000000877
23.030000000001756, 11.514950000000878
23.040000000001758, 11.519950000000879
23.05000000000176, 11.52495000000088
23.06000000000176, 11.52995000000088
23.070000000001762, 11.534950000000881
23.080000000001764, 11.539950000000882
23.090000000001766, 11.544950000000883
23.100000000001767, 11.549950000000884
23.11000000000177, 11.554950000000884
23.12000000000177, 11.559950000000885
23.130000000001772, 11.564950000000886
23.140000000001773, 11.569950000000887
23.150000000001775, 11.574950000000888
23.160000000001776, 11.579950000000888
23.170000000001778, 11.58495000000089
23.18000000000178, 11.58995000000089
23.19000000000178, 11.59495000000089
23.200000000001783, 11.599950000000891
23.210000000001784, 11.604950000000892
23.220000000001786, 11.609950000000893
23.230000000001787, 11.614950000000894
23.24000000000179, 11.619950000000895
23.25000000000179, 11.624950000000895
23.260000000001792, 11.629950000000896
23.270000000001794, 11.634950000000897
23.280000000001795, 11.639950000000898
23.290000000001797, 11.644950000000899
23.3000000000018, 11.6499500000009
23.3100000000018, 11.6549500000009
23.3200000000018, 11.6599500000009
23.330000000001803, 11.664950000000902
23.340000000001805, 11.669950000000902
23.350000000001806, 11.674950000000903
23.360000000001808, 11.679950000000904
23.37000000000181, 11.684950000000905
23.38000000000181, 11.689950000000906
23.390000000001812, 11.694950000000906
23.400000000001814, 11.699950000000907
23.410000000001816, 11.704950000000908
23.420000000001817, 11.709950000000909
23.43000000000182, 11.71495000000091
23.44000000000182, 11.71995000000091
23.450000000001822, 11.724950000000911
23.460000000001823, 11.729950000000912
23.470000000001825, 11.734950000000913
23.480000000001827, 11.739950000000913
23.490000000001828, 11.744950000000914
23.50000000000183, 11.749950000000915
23.51000000000183, 11.754950000000916
23.520000000001833, 11.759950000000917
23.530000000001834, 11.764950000000917
23.540000000001836, 11.769950000000918
23.550000000001837, 11.774950000000919
23.56000000000184, 11.77995000000092
23.57000000000184, 11.78495000000092
23.580000000001842, 11.789950000000921
23.590000000001844, 11.794950000000922
23.600000000001845, 11.799950000000923
23.610000000001847, 11.804950000000924
23.62000000000185, 11.809950000000924
23.63000000000185, 11.814950000000925
23.64000000000185, 11.819950000000926
23.650000000001853, 11.824950000000927
23.660000000001855, 11.829950000000927
23.670000000001856, 11.834950000000928
23.680000000001858, 11.839950000000929
23.69000000000186, 11.84495000000093
23.70000000000186, 11.84995000000093
23.710000000001862, 11.854950000000931
23.720000000001864, 11.859950000000932
23.730000000001866, 11.864950000000933
23.740000000001867, 11.869950000000934
23.75000000000187, 11.874950000000934
23.76000000000187, 11.879950000000935
23.770000000001872, 11.884950000000936
23.780000000001873, 11.889950000000937
23.790000000001875, 11.894950000000938
23.800000000001877, 11.899950000000938
23.810000000001878, 11.90495000000094
23.82000000000188, 11.90995000000094
23.83000000000188, 11.91495000000094
23.840000000001883, 11.919950000000942
23.850000000001884, 11.924950000000942
23.860000000001886, 11.929950000000943
23.870000000001887, 11.934950000000944
23.88000000000189, 11.939950000000945
23.89000000000189, 11.944950000000945
23.900000000001892, 11.949950000000946
23.910000000001894, 11.954950000000947
23.920000000001895, 11.959950000000948
23.930000000001897, 11.964950000000949
23.9400000000019, 11.96995000000095
23.9500000000019, 11.97495000000095
23.9600000000019, 11.979950000000951
23.970000000001903, 11.984950000000952
23.980000000001905, 11.989950000000952
23.990000000001906, 11.994950000000953
